%OpenBCI Raw EXG Data
%Number of channels = 8
%Sample Rate = 250 Hz
%Board = OpenBCI_GUI$BoardCytonSerial
Sample Index, EXG Channel 0, EXG Channel 1, EXG Channel 2, EXG Channel 3, EXG Channel 4, EXG Channel 5, EXG Channel 6, EXG Channel 7, Accel Channel 0, Accel Channel 1, Accel Channel 2, Not Used, Digital Channel 0 (D11), Digital Channel 1 (D12), Digital Channel 2 (D13), Digital Channel 3 (D17), Not Used, Digital Channel 4 (D18), Analog Channel 0, Analog Channel 1, Analog Channel 2, Timestamp, Marker Channel, Timestamp (Formatted)
0.0, 0.0, 0.0, 0.0, 0.0, 0.0, 0.0, 0.0, 0.0, -0.26, 0.796, 0.506, 192.0, 247.0, 224.0, 24.0, 224.0, 15.0, 208.0, 0.0, 0.0, 0.0, 1.7272856403387008E9, 0.0, 2024-09-25 12:34:00.338
1.0, 115444.99432384901, 187500.0, 146862.2710540618, 131999.36681978308, 56950.85906396616, 108361.4806367732, 114252.93108855857, 118376.58207137372, -0.26, 0.796, 0.506, 192.0, 0.0, 0.0, 0.0, 0.0, 0.0, 0.0, 0.0, 0.0, 0.0, 1.7272856403556523E9, 0.0, 2024-09-25 12:34:00.355
2.0, 115432.05266380939, 187500.0, 146816.02529478376, 131987.7439126663, 56920.818319418235, 108356.16092159283, 114254.83098683727, 118369.00483000337, -0.26, 0.796, 0.506, 192.0, 0.0, 0.0, 0.0, 0.0, 0.0, 0.0, 0.0, 0.0, 0.0, 1.7272856403596919E9, 0.0, 2024-09-25 12:34:00.359
3.0, 115429.34810273029, 187500.0, 146788.3538351481, 131972.0976915476, 56909.19541230147, 108342.36989526391, 114248.1701669896, 118367.08257998021, -0.26, 0.796, 0.506, 192.0, 0.0, 0.0, 0.0, 0.0, 0.0, 0.0, 0.0, 0.0, 0.0, 1.7272856403626971E9, 0.0, 2024-09-25 12:34:00.362
4.0, 115447.92240237266, 187500.0, 146820.2050709969, 131974.77990088225, 56936.53159577031, 108331.10461605844, 114252.14877750263, 118355.99611473038, -0.26, 0.796, 0.506, 192.0, 0.0, 0.0, 0.0, 0.0, 0.0, 0.0, 0.0, 0.0, 0.0, 1.7272856403657155E9, 0.0, 2024-09-25 12:34:00.365
5.0, 115445.28489652692, 187500.0, 146860.52761799426, 131987.9003748775, 56965.27593913984, 108344.62742145389, 114257.62495489419, 118377.25262370738, -0.26, 0.796, 0.506, 192.0, 0.0, 0.0, 0.0, 0.0, 0.0, 0.0, 0.0, 0.0, 0.0, 1.7272856403696804E9, 0.0, 2024-09-25 12:34:00.369
6.0, 115438.28880051241, 187500.0, 146825.88241408856, 131986.67102893247, 56944.75703772987, 108348.31545928902, 114267.10209454324, 118375.88916729561, -0.26, 0.796, 0.506, 192.0, 0.0, 0.0, 0.0, 0.0, 0.0, 0.0, 0.0, 0.0, 0.0, 1.7272856403736615E9, 0.0, 2024-09-25 12:34:00.373
7.0, 115447.38596050572, 187500.0, 146796.26635268526, 131986.0004765988, 56932.39652304608, 108349.74597093416, 114269.94076608906, 118375.41978066204, -0.26, 0.796, 0.506, 192.0, 0.0, 0.0, 0.0, 0.0, 0.0, 0.0, 0.0, 0.0, 0.0, 1.7272856403777187E9, 0.0, 2024-09-25 12:34:00.377
8.0, 115478.27607134296, 187500.0, 146832.31971649168, 132002.3172500512, 56961.923177471544, 108355.26685181462, 114282.39068775067, 118372.91638528305, -0.254, 0.804, 0.512, 192.0, 248.0, 16.0, 25.0, 32.0, 16.0, 0.0, 0.0, 0.0, 0.0, 1.7272856403817012E9, 0.0, 2024-09-25 12:34:00.381
9.0, 115483.10404814531, 187500.0, 146884.4663363059, 132024.44547706193, 56991.60629410819, 108374.19877936826, 114284.20117905155, 118388.31673721275, -0.254, 0.804, 0.512, 192.0, 0.0, 0.0, 0.0, 0.0, 0.0, 0.0, 0.0, 0.0, 0.0, 1.7272856403857872E9, 0.0, 2024-09-25 12:34:00.385
10.0, 115462.16046359068, 187500.0, 146865.31089130772, 132018.18698861444, 56977.36823289016, 108381.08311666049, 114286.32459477481, 118403.73944088691, -0.254, 0.804, 0.512, 192.0, 0.0, 0.0, 0.0, 0.0, 0.0, 0.0, 0.0, 0.0, 0.0, 1.727285640388791E9, 0.0, 2024-09-25 12:34:00.388
11.0, 115465.35676304779, 187500.0, 146828.0952367896, 132010.49798852182, 56959.46448558146, 108377.23861661418, 114288.64917619816, 118404.14177228711, -0.254, 0.804, 0.512, 192.0, 0.0, 0.0, 0.0, 0.0, 0.0, 0.0, 0.0, 0.0, 0.0, 1.727285640393787E9, 0.0, 2024-09-25 12:34:00.393
12.0, 115497.8114959969, 187500.0, 146846.98246085437, 132020.17629387096, 56975.89301775611, 108371.6283287559, 114297.38870828018, 118391.11070526966, -0.254, 0.804, 0.512, 192.0, 0.0, 0.0, 0.0, 0.0, 0.0, 0.0, 0.0, 0.0, 0.0, 1.7272856403987355E9, 0.0, 2024-09-25 12:34:00.398
13.0, 115510.08260370286, 187500.0, 146897.9667899569, 132040.00229120284, 57006.29139021533, 108386.29107311858, 114305.59179849528, 118394.75403961589, -0.254, 0.804, 0.512, 192.0, 0.0, 0.0, 0.0, 0.0, 0.0, 0.0, 0.0, 0.0, 0.0, 1.7272856404018075E9, 0.0, 2024-09-25 12:34:00.401
14.0, 115501.6112925543, 187500.0, 146896.4692230784, 132047.69129129546, 57005.978465792956, 108401.7361285372, 114318.22053411252, 118413.82007763626, -0.254, 0.804, 0.512, 192.0, 0.0, 0.0, 0.0, 0.0, 0.0, 0.0, 0.0, 0.0, 0.0, 1.727285640405766E9, 0.0, 2024-09-25 12:34:00.405
15.0, 115495.9115977182, 187500.0, 146848.03299284374, 132036.29190162325, 56978.351709646195, 108397.31048313505, 114313.481964288, 118412.54602820231, -0.254, 0.804, 0.512, 192.0, 0.0, 0.0, 0.0, 0.0, 0.0, 0.0, 0.0, 0.0, 0.0, 1.727285640409763E9, 0.0, 2024-09-25 12:34:00.409
16.0, 115514.68706306066, 187500.0, 146859.0747546047, 132041.23163714787, 56997.59656162222, 108398.65158780236, 114328.59174353979, 118417.41870849357, -0.254, 0.804, 0.512, 192.0, 0.0, 0.0, 0.0, 0.0, 0.0, 0.0, 0.0, 0.0, 0.0, 1.727285640415001E9, 0.0, 2024-09-25 12:34:00.415
17.0, 115523.27013293149, 187500.0, 146920.56440360122, 132061.66113158, 57040.981297609964, 108414.14134670989, 114339.1417669227, 118442.43031053906, -0.254, 0.804, 0.512, 192.0, 0.0, 0.0, 0.0, 0.0, 0.0, 0.0, 0.0, 0.0, 0.0, 1.727285640418167E9, 0.0, 2024-09-25 12:34:00.418
18.0, 115518.10687996232, 187500.0, 146920.94438325698, 132068.4784136389, 57035.63923068515, 108425.02664625963, 114344.99792396999, 118450.74515947643, -0.244, 0.81, 0.514, 192.0, 248.0, 96.0, 25.0, 80.0, 16.0, 16.0, 0.0, 0.0, 0.0, 1.7272856404207852E9, 0.0, 2024-09-25 12:34:00.420
19.0, 115512.04955721494, 187500.0, 146880.33126358167, 132062.4657943804, 57014.18155600805, 108428.46881490575, 114347.47896760452, 118456.80248222381, -0.244, 0.81, 0.514, 192.0, 0.0, 0.0, 0.0, 0.0, 0.0, 0.0, 0.0, 0.0, 0.0, 1.727285640425779E9, 0.0, 2024-09-25 12:34:00.425
20.0, 115536.18944122666, 187500.0, 146870.69766172144, 132065.23741069288, 57014.82975659725, 108421.5397741246, 114358.76659855446, 118440.3068948158, -0.244, 0.81, 0.514, 192.0, 0.0, 0.0, 0.0, 0.0, 0.0, 0.0, 0.0, 0.0, 0.0, 1.7272856404297423E9, 0.0, 2024-09-25 12:34:00.429
21.0, 115552.70738037913, 187500.0, 146932.29906944025, 132084.61637313562, 57058.48271351847, 108433.1403294969, 114361.82878754483, 118458.14358689114, -0.244, 0.81, 0.514, 192.0, 0.0, 0.0, 0.0, 0.0, 0.0, 0.0, 0.0, 0.0, 0.0, 1.7272856404337857E9, 0.0, 2024-09-25 12:34:00.433
22.0, 115548.3264384659, 187500.0, 146952.08036328322, 132095.59107966317, 57067.93750142307, 108445.43378894732, 114367.03674400292, 118475.17561616607, -0.244, 0.81, 0.514, 192.0, 0.0, 0.0, 0.0, 0.0, 0.0, 0.0, 0.0, 0.0, 0.0, 1.7272856404367528E9, 0.0, 2024-09-25 12:34:00.436
23.0, 115543.40905468573, 187500.0, 146913.2777349088, 132089.89138482706, 57045.317536034294, 108448.71949538226, 114372.22234871655, 118473.58864230975, -0.244, 0.81, 0.514, 192.0, 0.0, 0.0, 0.0, 0.0, 0.0, 0.0, 0.0, 0.0, 0.0, 1.7272856404407735E9, 0.0, 2024-09-25 12:34:00.440
24.0, 115561.17869152769, 187500.0, 146904.69466503797, 132094.87582384062, 57043.641155200145, 108449.92648958284, 114378.41378193066, 118476.53907257786, -0.244, 0.81, 0.514, 192.0, 0.0, 0.0, 0.0, 0.0, 0.0, 0.0, 0.0, 0.0, 0.0, 1.727285640446814E9, 0.0, 2024-09-25 12:34:00.446
25.0, 115583.530435983, 187500.0, 146959.72465988694, 132113.29366127177, 57080.208609129026, 108457.05669606409, 114385.23106398953, 118484.71981104849, -0.244, 0.81, 0.514, 192.0, 0.0, 0.0, 0.0, 0.0, 0.0, 0.0, 0.0, 0.0, 0.0, 1.7272856404497695E9, 0.0, 2024-09-25 12:34:00.449
26.0, 115578.94832836966, 187500.0, 146988.06667185624, 132121.3849927646, 57093.59730405776, 108463.38223974494, 114387.57799715734, 118493.23582568596, -0.244, 0.81, 0.514, 192.0, 0.0, 0.0, 0.0, 0.0, 0.0, 0.0, 0.0, 0.0, 0.0, 1.727285640453792E9, 0.0, 2024-09-25 12:34:00.453
27.0, 115570.8793486213, 187500.0, 146952.16977026104, 132120.87090264214, 57071.62553925819, 108470.64655669291, 114393.70237513809, 118495.44864838704, -0.244, 0.81, 0.514, 192.0, 0.0, 0.0, 0.0, 0.0, 0.0, 0.0, 0.0, 0.0, 0.0, 1.7272856404588947E9, 0.0, 2024-09-25 12:34:00.458
28.0, 115588.04548836297, 187500.0, 146926.86759553762, 132122.7260974319, 57066.641100244655, 108476.39095501792, 114408.94626485661, 118491.49238961845, -0.246, 0.8140000000000001, 0.512, 192.0, 248.0, 80.0, 25.0, 112.0, 16.0, 0.0, 0.0, 0.0, 0.0, 1.7272856404628992E9, 0.0, 2024-09-25 12:34:00.462
29.0, 115598.30493906797, 187500.0, 146980.4894304859, 132132.40440278107, 57108.41651063163, 108492.97594940376, 114405.3029305104, 118520.84023008827, -0.246, 0.8140000000000001, 0.512, 192.0, 0.0, 0.0, 0.0, 0.0, 0.0, 0.0, 0.0, 0.0, 0.0, 1.7272856404658442E9, 0.0, 2024-09-25 12:34:00.465
30.0, 115599.82485769092, 187500.0, 147018.57680303775, 132143.31205407524, 57126.05203700686, 108501.67077799689, 114410.42147999066, 118529.60211391475, -0.246, 0.8140000000000001, 0.512, 192.0, 0.0, 0.0, 0.0, 0.0, 0.0, 0.0, 0.0, 0.0, 0.0, 1.727285640470003E9, 0.0, 2024-09-25 12:34:00.470
31.0, 115593.85694192136, 187500.0, 146985.5409247328, 132139.9369406625, 57104.97434198551, 108499.79323146264, 114421.10561384031, 118523.2765702339, -0.246, 0.8140000000000001, 0.512, 192.0, 0.0, 0.0, 0.0, 0.0, 0.0, 0.0, 0.0, 0.0, 0.0, 1.7272856404749312E9, 0.0, 2024-09-25 12:34:00.474
32.0, 115599.89191292429, 187500.0, 146949.59931964867, 132136.27125457182, 57088.948141211054, 108496.28400758315, 114424.19015457513, 118519.47677367649, -0.246, 0.8140000000000001, 0.512, 192.0, 0.0, 0.0, 0.0, 0.0, 0.0, 0.0, 0.0, 0.0, 0.0, 1.7272856404789064E9, 0.0, 2024-09-25 12:34:00.478
33.0, 115623.58476204691, 187500.0, 146988.98309337892, 132149.77170822283, 57118.05011249187, 108505.58233327656, 114430.89567791173, 118535.30180875085, -0.246, 0.8140000000000001, 0.512, 192.0, 0.0, 0.0, 0.0, 0.0, 0.0, 0.0, 0.0, 0.0, 0.0, 1.7272856404829805E9, 0.0, 2024-09-25 12:34:00.482
34.0, 115635.45353835268, 187500.0, 147030.0432479433, 132164.70267351897, 57140.84889183628, 108512.86900196898, 114443.30089608442, 118535.54767793986, -0.246, 0.8140000000000001, 0.512, 192.0, 0.0, 0.0, 0.0, 0.0, 0.0, 0.0, 0.0, 0.0, 0.0, 1.7272856404859424E9, 0.0, 2024-09-25 12:34:00.485
35.0, 115621.6401602793, 187500.0, 147015.33580009174, 132164.25563862987, 57130.36592368674, 108523.55313581863, 114443.2114891066, 118548.04230309038, -0.246, 0.8140000000000001, 0.512, 192.0, 0.0, 0.0, 0.0, 0.0, 0.0, 0.0, 0.0, 0.0, 0.0, 1.7272856404899228E9, 0.0, 2024-09-25 12:34:00.489
36.0, 115631.78785226202, 187500.0, 146973.0910030712, 132161.61813278415, 57107.053054219854, 108524.46955734129, 114457.65071602473, 118538.94514309707, -0.246, 0.8140000000000001, 0.512, 192.0, 0.0, 0.0, 0.0, 0.0, 0.0, 0.0, 0.0, 0.0, 0.0, 1.7272856404959092E9, 0.0, 2024-09-25 12:34:00.495
37.0, 115652.17264320525, 187500.0, 146996.694445216, 132172.21285965596, 57131.43880742059, 108532.87381325649, 114466.8149312514, 118549.94220136908, -0.246, 0.8140000000000001, 0.512, 192.0, 0.0, 0.0, 0.0, 0.0, 0.0, 0.0, 0.0, 0.0, 0.0, 1.7272856404989753E9, 0.0, 2024-09-25 12:34:00.498
38.0, 115657.49235838561, 187500.0, 147049.33280340827, 132185.35568539568, 57168.07331658284, 108542.50741511672, 114469.1171609303, 118565.54371899889, -0.246, 0.8140000000000001, 0.512, 192.0, 0.0, 0.0, 0.0, 0.0, 0.0, 0.0, 0.0, 0.0, 0.0, 1.7272856405019803E9, 0.0, 2024-09-25 12:34:00.501
39.0, 115652.06088448297, 187500.0, 147037.17345442457, 132187.88143251915, 57150.79541811889, 108542.7756360502, 114467.53018707398, 118561.09572185228, -0.246, 0.8160000000000001, 0.512, 192.0, 248.0, 80.0, 25.0, 128.0, 16.0, 0.0, 0.0, 0.0, 0.0, 1.7272856405049756E9, 0.0, 2024-09-25 12:34:00.504
40.0, 115647.38936989181, 187500.0, 146998.1026051167, 132186.11564470717, 57128.71189459704, 108547.2236331968, 114484.20458843764, 118567.9353556556, -0.246, 0.8160000000000001, 0.512, 192.0, 0.0, 0.0, 0.0, 0.0, 0.0, 0.0, 0.0, 0.0, 0.0, 1.7272856405099742E9, 0.0, 2024-09-25 12:34:00.509
41.0, 115663.86260555538, 187500.0, 147014.08410240224, 132193.53642386635, 57145.565109916344, 108556.25373795674, 114492.40767865273, 118587.98487043202, -0.246, 0.8160000000000001, 0.512, 192.0, 0.0, 0.0, 0.0, 0.0, 0.0, 0.0, 0.0, 0.0, 0.0, 1.7272856405139709E9, 0.0, 2024-09-25 12:34:00.513
42.0, 115687.89073084483, 187500.0, 147065.49311464943, 132209.74143859642, 57177.14812483169, 108565.95439505034, 114504.23175146959, 118591.18116988913, -0.246, 0.8160000000000001, 0.512, 192.0, 0.0, 0.0, 0.0, 0.0, 0.0, 0.0, 0.0, 0.0, 0.0, 1.7272856405179813E9, 0.0, 2024-09-25 12:34:00.517
43.0, 115679.82175109646, 187500.0, 147075.17141999857, 132216.8045898443, 57180.322072544346, 108581.44415395787, 114507.04807127095, 118604.5922165623, -0.246, 0.8160000000000001, 0.512, 192.0, 0.0, 0.0, 0.0, 0.0, 0.0, 0.0, 0.0, 0.0, 0.0, 1.7272856405209982E9, 0.0, 2024-09-25 12:34:00.520
44.0, 115672.1551027483, 187500.0, 147033.41836135607, 132209.62967987414, 57154.952842587576, 108583.36640398102, 114511.92075156221, 118606.31330088536, -0.246, 0.8160000000000001, 0.512, 192.0, 0.0, 0.0, 0.0, 0.0, 0.0, 0.0, 0.0, 0.0, 0.0, 1.727285640524943E9, 0.0, 2024-09-25 12:34:00.524
45.0, 115697.85960887189, 187500.0, 147027.15987290858, 132216.5140171664, 57158.35030774478, 108579.83482835708, 114527.00817906955, 118598.4454868371, -0.246, 0.8160000000000001, 0.512, 192.0, 0.0, 0.0, 0.0, 0.0, 0.0, 0.0, 0.0, 0.0, 0.0, 1.7272856405300083E9, 0.0, 2024-09-25 12:34:00.530
46.0, 115713.2152573127, 187500.0, 147083.44156544705, 132236.1612005426, 57198.47168904206, 108592.88824711899, 114533.84781287287, 118617.42211787966, -0.246, 0.8160000000000001, 0.512, 192.0, 0.0, 0.0, 0.0, 0.0, 0.0, 0.0, 0.0, 0.0, 0.0, 1.7272856405340018E9, 0.0, 2024-09-25 12:34:00.534
47.0, 115703.42519324127, 187500.0, 147102.93228661208, 132242.39733724564, 57204.08197690034, 108601.89600013448, 114533.9819233396, 118632.24132445351, -0.246, 0.8160000000000001, 0.512, 192.0, 0.0, 0.0, 0.0, 0.0, 0.0, 0.0, 0.0, 0.0, 0.0, 1.727285640538024E9, 0.0, 2024-09-25 12:34:00.538
48.0, 115703.1569723078, 187500.0, 147069.09174550674, 132245.30306402483, 57182.557246989876, 108603.61708445754, 114546.74476942359, 118639.84091756832, -0.246, 0.8160000000000001, 0.512, 192.0, 0.0, 0.0, 0.0, 0.0, 0.0, 0.0, 0.0, 0.0, 0.0, 1.7272856405419624E9, 0.0, 2024-09-25 12:34:00.541
49.0, 115717.23857131465, 187500.0, 147053.22200694348, 132248.23114254847, 57176.92460738714, 108599.43730824439, 114554.5902317274, 118637.53868788942, -0.24, 0.8140000000000001, 0.51, 192.0, 248.0, 128.0, 25.0, 112.0, 15.0, 240.0, 0.0, 0.0, 0.0, 1.727285640546033E9, 0.0, 2024-09-25 12:34:00.546
50.0, 115737.80217621353, 187500.0, 147105.94977211356, 132264.79378518986, 57214.453186327606, 108605.91931413644, 114559.03822887401, 118646.68055137165, -0.24, 0.8140000000000001, 0.51, 192.0, 0.0, 0.0, 0.0, 0.0, 0.0, 0.0, 0.0, 0.0, 0.0, 1.727285640549028E9, 0.0, 2024-09-25 12:34:00.549
51.0, 115734.67293198979, 187500.0, 147136.2810893394, 132272.3710265602, 57228.17715742316, 108613.00481712876, 114558.97117364063, 118652.64846714122, -0.24, 0.8140000000000001, 0.51, 192.0, 0.0, 0.0, 0.0, 0.0, 0.0, 0.0, 0.0, 0.0, 0.0, 1.7272856405530264E9, 0.0, 2024-09-25 12:34:00.553
52.0, 115737.0645686465, 187500.0, 147098.35017899875, 132271.54401201537, 57201.04213965442, 108611.52960199471, 114568.40360980078, 118636.1975832221, -0.24, 0.8140000000000001, 0.51, 192.0, 0.0, 0.0, 0.0, 0.0, 0.0, 0.0, 0.0, 0.0, 0.0, 1.727285640557002E9, 0.0, 2024-09-25 12:34:00.557
53.0, 115748.3745513409, 187500.0, 147073.98677754245, 132272.88511668268, 57195.61066575178, 108614.48003226281, 114578.6407087613, 118632.3530831758, -0.24, 0.8140000000000001, 0.51, 192.0, 0.0, 0.0, 0.0, 0.0, 0.0, 0.0, 0.0, 0.0, 0.0, 1.7272856405610406E9, 0.0, 2024-09-25 12:34:00.561
54.0, 115763.84195850397, 187500.0, 147114.73400768448, 132283.34573308774, 57224.645581799225, 108623.19721260038, 114580.00416517309, 118643.46190017008, -0.24, 0.8140000000000001, 0.51, 192.0, 0.0, 0.0, 0.0, 0.0, 0.0, 0.0, 0.0, 0.0, 0.0, 1.7272856405650449E9, 0.0, 2024-09-25 12:34:00.565
55.0, 115765.6748015493, 187500.0, 147157.24702563847, 132296.60031754975, 57247.19849195463, 108635.15539588398, 114582.73107799664, 118652.69317063013, -0.24, 0.8140000000000001, 0.51, 192.0, 0.0, 0.0, 0.0, 0.0, 0.0, 0.0, 0.0, 0.0, 0.0, 1.7272856405700777E9, 0.0, 2024-09-25 12:34:00.570
56.0, 115760.1762724133, 187500.0, 147135.96816491702, 132299.77426526241, 57231.10523594681, 108641.1903668869, 114592.43173509023, 118654.16838576418, -0.24, 0.8140000000000001, 0.51, 192.0, 0.0, 0.0, 0.0, 0.0, 0.0, 0.0, 0.0, 0.0, 0.0, 1.727285640573073E9, 0.0, 2024-09-25 12:34:00.573
57.0, 115763.88666199287, 187500.0, 147105.972123858, 132295.34861986025, 57218.252982885, 108644.3419628551, 114597.88556073733, 118662.14795853473, -0.24, 0.8140000000000001, 0.51, 192.0, 0.0, 0.0, 0.0, 0.0, 0.0, 0.0, 0.0, 0.0, 0.0, 1.7272856405770786E9, 0.0, 2024-09-25 12:34:00.577
58.0, 115788.585339616, 187500.0, 147133.5765282603, 132302.0317914524, 57238.59307033933, 108645.57130880015, 114599.47253459366, 118663.53376669095, -0.24, 0.8140000000000001, 0.51, 192.0, 0.0, 0.0, 0.0, 0.0, 0.0, 0.0, 0.0, 0.0, 0.0, 1.727285640581076E9, 0.0, 2024-09-25 12:34:00.581
59.0, 115793.16744722932, 187500.0, 147181.16339220566, 132317.83447478228, 57267.47152417559, 108654.37789611553, 114608.81556377598, 118674.32965926286, -0.244, 0.81, 0.51, 192.0, 248.0, 96.0, 25.0, 80.0, 15.0, 240.0, 0.0, 0.0, 0.0, 1.727285640585096E9, 0.0, 2024-09-25 12:34:00.585
60.0, 115781.2763191791, 187500.0, 147170.99334847849, 132321.96954750654, 57262.24121597305, 108661.46339910787, 114618.42681389175, 118687.9642233806, -0.244, 0.81, 0.51, 192.0, 0.0, 0.0, 0.0, 0.0, 0.0, 0.0, 0.0, 0.0, 0.0, 1.7272856405890954E9, 0.0, 2024-09-25 12:34:00.589
61.0, 115783.75736281365, 187500.0, 147129.9331939141, 132317.16392244864, 57241.29763141843, 108659.42939036243, 114622.4054244048, 118688.85829315882, -0.244, 0.81, 0.51, 192.0, 0.0, 0.0, 0.0, 0.0, 0.0, 0.0, 0.0, 0.0, 0.0, 1.7272856405931056E9, 0.0, 2024-09-25 12:34:00.593
62.0, 115802.46577292273, 187500.0, 147149.37921159022, 132326.39519290868, 57257.74851533753, 108666.6490038215, 114627.18869771823, 118700.07886887538, -0.244, 0.81, 0.51, 192.0, 0.0, 0.0, 0.0, 0.0, 0.0, 0.0, 0.0, 0.0, 0.0, 1.7272856405980625E9, 0.0, 2024-09-25 12:34:00.598
63.0, 115819.72131964224, 187500.0, 147206.86789832925, 132346.5341146629, 57301.334417025384, 108682.25052145131, 114645.47242468268, 118714.89807544925, -0.244, 0.81, 0.51, 192.0, 0.0, 0.0, 0.0, 0.0, 0.0, 0.0, 0.0, 0.0, 0.0, 1.727285640601125E9, 0.0, 2024-09-25 12:34:00.601
64.0, 115805.14798225737, 187500.0, 147206.5549739069, 132349.3951379532, 57301.93791412567, 108691.34768144462, 114647.72995087266, 118726.40922384373, -0.244, 0.81, 0.51, 192.0, 0.0, 0.0, 0.0, 0.0, 0.0, 0.0, 0.0, 0.0, 0.0, 1.7272856406061013E9, 0.0, 2024-09-25 12:34:00.606
65.0, 115802.73399385619, 187500.0, 147160.5327320734, 132341.16969599362, 57272.388907955756, 108688.46430640988, 114650.0098288071, 118724.46462207612, -0.244, 0.81, 0.51, 192.0, 0.0, 0.0, 0.0, 0.0, 0.0, 0.0, 0.0, 0.0, 0.0, 1.727285640609141E9, 0.0, 2024-09-25 12:34:00.609
66.0, 115824.14696504438, 187500.0, 147165.3383571313, 132345.1483065067, 57279.943797581655, 108692.19704773392, 114651.14976777432, 118727.52681106649, -0.244, 0.81, 0.51, 192.0, 0.0, 0.0, 0.0, 0.0, 0.0, 0.0, 0.0, 0.0, 0.0, 1.7272856406131337E9, 0.0, 2024-09-25 12:34:00.613
67.0, 115842.40834026437, 187500.0, 147225.75512239398, 132366.13659455022, 57322.18859460218, 108702.41179494999, 114663.62204118038, 118742.34601764036, -0.244, 0.81, 0.51, 192.0, 0.0, 0.0, 0.0, 0.0, 0.0, 0.0, 0.0, 0.0, 0.0, 1.727285640617092E9, 0.0, 2024-09-25 12:34:00.617
68.0, 115831.43363373681, 187500.0, 147249.33621279433, 132378.85473714527, 57334.23618486359, 108719.64498992503, 114665.67840167027, 118774.3313639559, -0.244, 0.81, 0.51, 192.0, 0.0, 0.0, 0.0, 0.0, 0.0, 0.0, 0.0, 0.0, 0.0, 1.7272856406210828E9, 0.0, 2024-09-25 12:34:00.621
69.0, 115829.2431627802, 187500.0, 147201.92816280463, 132372.81976614235, 57303.368425770816, 108714.39232997803, 114671.15457906183, 118767.96111678614, -0.244, 0.81, 0.51, 192.0, 0.0, 0.0, 0.0, 0.0, 0.0, 0.0, 0.0, 0.0, 0.0, 1.7272856406251175E9, 0.0, 2024-09-25 12:34:00.625
70.0, 115844.50940424317, 187500.0, 147190.32760743232, 132376.70896967757, 57303.68135019319, 108716.24752476782, 114678.4635994987, 118764.27307895102, -0.244, 0.8140000000000001, 0.514, 192.0, 248.0, 96.0, 25.0, 112.0, 16.0, 16.0, 0.0, 0.0, 0.0, 1.7272856406300724E9, 0.0, 2024-09-25 12:34:00.630
71.0, 115863.68720098582, 187500.0, 147238.96500336708, 132389.00242912798, 57335.644344764274, 108718.08036781316, 114686.48787575816, 118764.16132022874, -0.244, 0.8140000000000001, 0.514, 192.0, 0.0, 0.0, 0.0, 0.0, 0.0, 0.0, 0.0, 0.0, 0.0, 1.7272856406341505E9, 0.0, 2024-09-25 12:34:00.634
72.0, 115852.71249445826, 187500.0, 147262.9707769121, 132396.22204258706, 57348.5860048039, 108728.25041154033, 114682.93394838976, 118785.21666350563, -0.244, 0.8140000000000001, 0.514, 192.0, 0.0, 0.0, 0.0, 0.0, 0.0, 0.0, 0.0, 0.0, 0.0, 1.7272856406371713E9, 0.0, 2024-09-25 12:34:00.637
73.0, 115847.32572404454, 187500.0, 147218.87078510175, 132392.8469291743, 57321.24982133506, 108727.40104525103, 114689.68417521527, 118779.96400355865, -0.244, 0.8140000000000001, 0.514, 192.0, 0.0, 0.0, 0.0, 0.0, 0.0, 0.0, 0.0, 0.0, 0.0, 1.7272856406411047E9, 0.0, 2024-09-25 12:34:00.641
74.0, 115858.90392767239, 187500.0, 147201.97286629354, 132394.500958264, 57321.09335912387, 108729.03272259627, 114697.35082356344, 118786.42365770623, -0.244, 0.8140000000000001, 0.514, 192.0, 0.0, 0.0, 0.0, 0.0, 0.0, 0.0, 0.0, 0.0, 0.0, 1.7272856406451206E9, 0.0, 2024-09-25 12:34:00.645
75.0, 115881.25567212769, 187500.0, 147251.92901515117, 132409.47662704907, 57358.77840027552, 108737.39227502255, 114706.4256318123, 118801.82400963594, -0.244, 0.8140000000000001, 0.514, 192.0, 0.0, 0.0, 0.0, 0.0, 0.0, 0.0, 0.0, 0.0, 0.0, 1.7272856406521971E9, 0.0, 2024-09-25 12:34:00.652
76.0, 115878.01466918168, 187500.0, 147292.765652271, 132422.03830743293, 57381.800697064486, 108752.74792346335, 114710.6724632588, 118826.76855644806, -0.244, 0.8140000000000001, 0.514, 192.0, 0.0, 0.0, 0.0, 0.0, 0.0, 0.0, 0.0, 0.0, 0.0, 1.7272856406552055E9, 0.0, 2024-09-25 12:34:00.655
77.0, 115868.93986093282, 187500.0, 147252.21958782908, 132416.91975795268, 57352.989298461594, 108750.49039727336, 114714.24874237165, 118819.23601856662, -0.244, 0.8140000000000001, 0.514, 192.0, 0.0, 0.0, 0.0, 0.0, 0.0, 0.0, 0.0, 0.0, 0.0, 1.7272856406591778E9, 0.0, 2024-09-25 12:34:00.659
78.0, 115880.07102967156, 187500.0, 147211.22648849804, 132413.254071862, 57332.24687960707, 108744.50012975934, 114724.55289656555, 118801.2428642801, -0.244, 0.8140000000000001, 0.514, 192.0, 0.0, 0.0, 0.0, 0.0, 0.0, 0.0, 0.0, 0.0, 0.0, 1.7272856406621127E9, 0.0, 2024-09-25 12:34:00.662
79.0, 115897.52774209116, 187500.0, 147249.8950064057, 132423.87115047828, 57363.002879977576, 108750.44569378445, 114729.87261174592, 118806.96491086065, -0.244, 0.8140000000000001, 0.514, 192.0, 0.0, 0.0, 0.0, 0.0, 0.0, 0.0, 0.0, 0.0, 0.0, 1.72728564066517E9, 0.0, 2024-09-25 12:34:00.665
80.0, 115902.53453284914, 187500.0, 147299.33706514086, 132442.35604314282, 57396.68695887172, 108766.96363293692, 114737.49455660518, 118825.09217561391, -0.244, 0.8160000000000001, 0.52, 192.0, 248.0, 96.0, 25.0, 128.0, 16.0, 64.0, 0.0, 0.0, 0.0, 1.7272856406691887E9, 0.0, 2024-09-25 12:34:00.669
81.0, 115890.44223909882, 187500.0, 147285.34487311184, 132443.45127862113, 57387.388633178314, 108777.15602840854, 114746.83758578749, 118844.2476206121, -0.244, 0.8160000000000001, 0.52, 192.0, 0.0, 0.0, 0.0, 0.0, 0.0, 0.0, 0.0, 0.0, 0.0, 1.7272856406731725E9, 0.0, 2024-09-25 12:34:00.673
82.0, 115901.48400085974, 187500.0, 147242.58598596885, 132439.09268845234, 57365.95331024568, 108769.80230448274, 114756.11355973645, 118833.02704489554, -0.244, 0.8160000000000001, 0.52, 192.0, 0.0, 0.0, 0.0, 0.0, 0.0, 0.0, 0.0, 0.0, 0.0, 1.7272856406771915E9, 0.0, 2024-09-25 12:34:00.677
83.0, 115927.85905931701, 187500.0, 147274.0572421619, 132453.84483979284, 57391.21078148017, 108777.35719410864, 114764.87544356292, 118840.82780371045, -0.244, 0.8160000000000001, 0.52, 192.0, 0.0, 0.0, 0.0, 0.0, 0.0, 0.0, 0.0, 0.0, 0.0, 1.7272856406812332E9, 0.0, 2024-09-25 12:34:00.681
84.0, 115928.99899828422, 187500.0, 147338.3408592154, 132470.4745376676, 57426.79475865302, 108795.39505188407, 114760.65096386087, 118875.71887680519, -0.244, 0.8160000000000001, 0.52, 192.0, 0.0, 0.0, 0.0, 0.0, 0.0, 0.0, 0.0, 0.0, 0.0, 1.7272856406851814E9, 0.0, 2024-09-25 12:34:00.685
85.0, 115924.2157249708, 187500.0, 147320.3700566733, 132470.3627789453, 57409.22628751115, 108794.41157512803, 114768.56348139806, 118867.42637961225, -0.244, 0.8160000000000001, 0.52, 192.0, 0.0, 0.0, 0.0, 0.0, 0.0, 0.0, 0.0, 0.0, 0.0, 1.7272856406902497E9, 0.0, 2024-09-25 12:34:00.690
86.0, 115926.94263779435, 187500.0, 147272.58202702785, 132467.92643879968, 57386.74043258911, 108793.51750534982, 114777.75004836918, 118853.00950443858, -0.244, 0.8160000000000001, 0.52, 192.0, 0.0, 0.0, 0.0, 0.0, 0.0, 0.0, 0.0, 0.0, 0.0, 1.727285640693255E9, 0.0, 2024-09-25 12:34:00.693
87.0, 115949.29438224965, 187500.0, 147285.34487311184, 132474.0731685249, 57403.191316508215, 108797.25024667387, 114783.62855716093, 118854.35060910591, -0.244, 0.8160000000000001, 0.52, 192.0, 0.0, 0.0, 0.0, 0.0, 0.0, 0.0, 0.0, 0.0, 0.0, 1.7272856406972077E9, 0.0, 2024-09-25 12:34:00.697
88.0, 115958.90563236542, 187500.0, 147342.8782633398, 132488.19947102063, 57441.2563373156, 108807.5767526122, 114785.32728973954, 118868.63337381285, -0.244, 0.8160000000000001, 0.52, 192.0, 0.0, 0.0, 0.0, 0.0, 0.0, 0.0, 0.0, 0.0, 0.0, 1.7272856407011836E9, 0.0, 2024-09-25 12:34:00.701
89.0, 115945.36047522552, 187500.0, 147340.64308889426, 132490.99343907755, 57439.758770437096, 108807.50969737885, 114782.4439147048, 118870.53327209155, -0.244, 0.8160000000000001, 0.52, 192.0, 0.0, 0.0, 0.0, 0.0, 0.0, 0.0, 0.0, 0.0, 0.0, 1.727285640705217E9, 0.0, 2024-09-25 12:34:00.705
90.0, 115939.23609724476, 187500.0, 147303.09215820936, 132487.95360183163, 57416.08827305893, 108811.06362474724, 114777.97356581374, 118880.0104117406, -0.242, 0.8160000000000001, 0.518, 192.0, 248.0, 112.0, 25.0, 128.0, 16.0, 48.0, 0.0, 0.0, 0.0, 1.7272856407091763E9, 0.0, 2024-09-25 12:34:00.709
91.0, 115961.23021378877, 187500.0, 147301.50518435304, 132493.4297792232, 57420.536270205535, 108809.74487182438, 114791.07168806455, 118874.60128958241, -0.242, 0.8160000000000001, 0.518, 192.0, 0.0, 0.0, 0.0, 0.0, 0.0, 0.0, 0.0, 0.0, 0.0, 1.7272856407132723E9, 0.0, 2024-09-25 12:34:00.713
92.0, 115982.50907451024, 187500.0, 147357.36219374684, 132512.54052073247, 57463.40691607081, 108818.30558995076, 114805.13093532693, 118875.42830412726, -0.242, 0.8160000000000001, 0.518, 192.0, 0.0, 0.0, 0.0, 0.0, 0.0, 0.0, 0.0, 0.0, 0.0, 1.727285640716218E9, 0.0, 2024-09-25 12:34:00.716
93.0, 115974.73066743978, 187500.0, 147375.71297594465, 132520.60950048084, 57472.72759350867, 108828.87796507812, 114804.43803124882, 118882.9608420087, -0.242, 0.8160000000000001, 0.518, 192.0, 0.0, 0.0, 0.0, 0.0, 0.0, 0.0, 0.0, 0.0, 0.0, 1.727285640722235E9, 0.0, 2024-09-25 12:34:00.722
94.0, 115966.86285339152, 187500.0, 147340.9783650611, 132514.95450913365, 57449.75000020862, 108834.2870872363, 114808.26017955068, 118887.05121124402, -0.242, 0.8160000000000001, 0.518, 192.0, 0.0, 0.0, 0.0, 0.0, 0.0, 0.0, 0.0, 0.0, 0.0, 1.72728564072523E9, 0.0, 2024-09-25 12:34:00.725
95.0, 115980.877397165, 187500.0, 147331.38946668978, 132514.77569517802, 57448.58770949695, 108834.37649421413, 114809.13189758443, 118890.22515895667, -0.242, 0.8160000000000001, 0.518, 192.0, 0.0, 0.0, 0.0, 0.0, 0.0, 0.0, 0.0, 0.0, 0.0, 1.7272856407292955E9, 0.0, 2024-09-25 12:34:00.729
96.0, 115996.38950781697, 187500.0, 147377.3223015454, 132525.66099472775, 57476.57209355499, 108838.15393902708, 114808.70721443978, 118892.90736829131, -0.242, 0.8160000000000001, 0.518, 192.0, 0.0, 0.0, 0.0, 0.0, 0.0, 0.0, 0.0, 0.0, 0.0, 1.727285640733287E9, 0.0, 2024-09-25 12:34:00.733
97.0, 115986.4206297899, 187500.0, 147407.6983222602, 132535.45105879917, 57492.553590840536, 108851.2967647668, 114815.65860696539, 118912.68866213426, -0.242, 0.8160000000000001, 0.518, 192.0, 0.0, 0.0, 0.0, 0.0, 0.0, 0.0, 0.0, 0.0, 0.0, 1.7272856407373188E9, 0.0, 2024-09-25 12:34:00.737
98.0, 115978.10578085254, 187500.0, 147373.90248464377, 132534.15465762076, 57471.25237837463, 108856.86234913616, 114821.0006738902, 118917.49428719215, -0.242, 0.8160000000000001, 0.518, 192.0, 0.0, 0.0, 0.0, 0.0, 0.0, 0.0, 0.0, 0.0, 0.0, 1.7272856407413285E9, 0.0, 2024-09-25 12:34:00.741
99.0, 115990.42159204741, 187500.0, 147345.35930697434, 132533.95349192066, 57463.742192237645, 108855.76711365786, 114835.99869441972, 118913.69449063475, -0.242, 0.8160000000000001, 0.518, 192.0, 0.0, 0.0, 0.0, 0.0, 0.0, 0.0, 0.0, 0.0, 0.0, 1.7272856407452857E9, 0.0, 2024-09-25 12:34:00.745
100.0, 116011.54399055768, 187500.0, 147386.46416502766, 132544.21294262566, 57497.53802985407, 108860.17040731554, 114845.76640674668, 118919.97533082668, -0.23600000000000002, 0.8140000000000001, 0.518, 192.0, 248.0, 160.0, 25.0, 112.0, 16.0, 48.0, 0.0, 0.0, 0.0, 1.7272856407482889E9, 0.0, 2024-09-25 12:34:00.748
101.0, 116012.6839295249, 187500.0, 147431.86055801637, 132560.66382654474, 57523.801329589056, 108876.82245693475, 114850.41556959339, 118943.08703459348, -0.23600000000000002, 0.8140000000000001, 0.518, 192.0, 0.0, 0.0, 0.0, 0.0, 0.0, 0.0, 0.0, 0.0, 0.0, 1.727285640754289E9, 0.0, 2024-09-25 12:34:00.754
102.0, 115999.31758634062, 187500.0, 147402.4009588243, 132554.293579375, 57506.14345146936, 108879.45996278049, 114854.7071045288, 118949.25611606314, -0.23600000000000002, 0.8140000000000001, 0.518, 192.0, 0.0, 0.0, 0.0, 0.0, 0.0, 0.0, 0.0, 0.0, 0.0, 1.7272856407603796E9, 0.0, 2024-09-25 12:34:00.760
103.0, 116010.56051380164, 187500.0, 147358.14450480277, 132547.07396591592, 57483.85876224742, 108871.9497766435, 114865.14536918943, 118929.96656059822, -0.23600000000000002, 0.8140000000000001, 0.518, 192.0, 0.0, 0.0, 0.0, 0.0, 0.0, 0.0, 0.0, 0.0, 0.0, 1.7272856407643297E9, 0.0, 2024-09-25 12:34:00.764
104.0, 116025.64794130897, 187500.0, 147396.9918366661, 132558.0486724435, 57512.64780910585, 108879.23644533592, 114868.38637213546, 118941.63417120388, -0.23600000000000002, 0.8140000000000001, 0.518, 192.0, 0.0, 0.0, 0.0, 0.0, 0.0, 0.0, 0.0, 0.0, 0.0, 1.7272856407673793E9, 0.0, 2024-09-25 12:34:00.767
105.0, 116027.21256342085, 187500.0, 147448.06557274648, 132573.87370751784, 57542.733257142696, 108893.40745132059, 114872.90142451542, 118952.16184284232, -0.23600000000000002, 0.8140000000000001, 0.518, 192.0, 0.0, 0.0, 0.0, 0.0, 0.0, 0.0, 0.0, 0.0, 0.0, 1.7272856407703664E9, 0.0, 2024-09-25 12:34:00.770
106.0, 116012.79568824718, 187500.0, 147436.10738946288, 132576.01947498554, 57532.831434349, 108901.99052119143, 114871.67207857038, 118965.50583428214, -0.23600000000000002, 0.8140000000000001, 0.518, 192.0, 0.0, 0.0, 0.0, 0.0, 0.0, 0.0, 0.0, 0.0, 0.0, 1.7272856407744396E9, 0.0, 2024-09-25 12:34:00.774
107.0, 116011.18636264639, 187500.0, 147394.6896069872, 132572.80082378397, 57511.86549804992, 108899.33066360124, 114880.99275600824, 118960.92372666881, -0.23600000000000002, 0.8140000000000001, 0.518, 192.0, 0.0, 0.0, 0.0, 0.0, 0.0, 0.0, 0.0, 0.0, 0.0, 1.7272856407773616E9, 0.0, 2024-09-25 12:34:00.777
108.0, 116028.0395779657, 187500.0, 147417.08605493142, 132581.47330063264, 57532.36204771543, 108905.16446890408, 114885.57486362159, 118969.90912793984, -0.23600000000000002, 0.8140000000000001, 0.518, 192.0, 0.0, 0.0, 0.0, 0.0, 0.0, 0.0, 0.0, 0.0, 0.0, 1.7272856407813902E9, 0.0, 2024-09-25 12:34:00.781
109.0, 116046.90445028598, 187500.0, 147462.16952349778, 132597.05246651798, 57560.05585909556, 108910.37242536216, 114897.89067481646, 118961.48252028019, -0.23600000000000002, 0.8140000000000001, 0.518, 192.0, 0.0, 0.0, 0.0, 0.0, 0.0, 0.0, 0.0, 0.0, 0.0, 1.7272856407853289E9, 0.0, 2024-09-25 12:34:00.785
110.0, 116040.75772056077, 187500.0, 147459.77788684107, 132604.0038590436, 57559.720582928734, 108919.1566609331, 114899.7235178618, 118973.88773845289, -0.23600000000000002, 0.8140000000000001, 0.518, 192.0, 0.0, 0.0, 0.0, 0.0, 0.0, 0.0, 0.0, 0.0, 0.0, 1.727285640788454E9, 0.0, 2024-09-25 12:34:00.788
111.0, 116033.15812744596, 187500.0, 147410.71580776165, 132594.77258858355, 57535.26777449463, 108911.8029370073, 114899.23177948377, 118970.75849422914, -0.234, 0.8220000000000001, 0.516, 192.0, 248.0, 176.0, 25.0, 176.0, 16.0, 32.0, 0.0, 0.0, 0.0, 1.7272856407923772E9, 0.0, 2024-09-25 12:34:00.792
112.0, 116045.00455200727, 187500.0, 147420.50587183307, 132599.30999270797, 57549.72935315721, 108911.13238467365, 114906.76431736522, 118977.41931407683, -0.234, 0.8220000000000001, 0.516, 192.0, 0.0, 0.0, 0.0, 0.0, 0.0, 0.0, 0.0, 0.0, 0.0, 1.7272856407974226E9, 0.0, 2024-09-25 12:34:00.797
113.0, 116060.56136614816, 187500.0, 147471.7137183802, 132613.97273707067, 57581.42412679483, 108919.3578266332, 114909.26771274421, 118984.6836310248, -0.234, 0.8220000000000001, 0.516, 192.0, 0.0, 0.0, 0.0, 0.0, 0.0, 0.0, 0.0, 0.0, 0.0, 1.727285640801418E9, 0.0, 2024-09-25 12:34:00.801
114.0, 116051.95594453288, 187500.0, 147474.23946550363, 132619.4489144622, 57579.63598723841, 108926.55508834781, 114906.49609643176, 118989.4892560827, -0.234, 0.8220000000000001, 0.516, 192.0, 0.0, 0.0, 0.0, 0.0, 0.0, 0.0, 0.0, 0.0, 0.0, 1.7272856408054526E9, 0.0, 2024-09-25 12:34:00.805
115.0, 116044.73633107381, 187500.0, 147428.66425855926, 132613.27983299256, 57550.44460897978, 108926.66684707008, 114912.35225347904, 118984.39305834689, -0.234, 0.8220000000000001, 0.516, 192.0, 0.0, 0.0, 0.0, 0.0, 0.0, 0.0, 0.0, 0.0, 0.0, 1.7272856408084557E9, 0.0, 2024-09-25 12:34:00.808
116.0, 116062.37185744905, 187500.0, 147427.43491261423, 132617.9513475837, 57557.619518949934, 108930.73486456096, 114924.15397455145, 118991.50091308367, -0.234, 0.8220000000000001, 0.516, 192.0, 0.0, 0.0, 0.0, 0.0, 0.0, 0.0, 0.0, 0.0, 0.0, 1.7272856408143947E9, 0.0, 2024-09-25 12:34:00.814
117.0, 116082.37666873654, 187500.0, 147483.02370107456, 132635.49746698112, 57590.141307132406, 108937.93212627555, 114923.99751234025, 118999.39107887639, -0.234, 0.8220000000000001, 0.516, 192.0, 0.0, 0.0, 0.0, 0.0, 0.0, 0.0, 0.0, 0.0, 0.0, 1.7272856408184752E9, 0.0, 2024-09-25 12:34:00.818
118.0, 116071.62547965354, 187500.0, 147499.34047452695, 132640.92894088375, 57596.846830468996, 108946.2693269574, 114929.00430309825, 119002.07328821103, -0.234, 0.8220000000000001, 0.516, 192.0, 0.0, 0.0, 0.0, 0.0, 0.0, 0.0, 0.0, 0.0, 0.0, 1.7272856408214772E9, 0.0, 2024-09-25 12:34:00.821
119.0, 116060.96369754836, 187500.0, 147455.68751760572, 132626.66852792128, 57573.913940657854, 108941.2625361994, 114930.83714614357, 118995.47952359672, -0.234, 0.8220000000000001, 0.516, 192.0, 0.0, 0.0, 0.0, 0.0, 0.0, 0.0, 0.0, 0.0, 0.0, 1.7272856408244433E9, 0.0, 2024-09-25 12:34:00.824
120.0, 116079.09096230162, 187500.0, 147442.43293314375, 132630.2671587786, 57568.99655687768, 108941.4637018995, 114936.89446889097, 118994.04901195157, -0.234, 0.8220000000000001, 0.516, 192.0, 0.0, 0.0, 0.0, 0.0, 0.0, 0.0, 0.0, 0.0, 0.0, 1.7272856408284707E9, 0.0, 2024-09-25 12:34:00.828
121.0, 116093.61959619756, 187500.0, 147500.99450361665, 132652.48479276715, 57612.291885887615, 108960.79796085334, 114950.55138475315, 119018.41241340786, -0.23600000000000002, 0.8200000000000001, 0.514, 192.0, 248.0, 160.0, 25.0, 160.0, 16.0, 16.0, 0.0, 0.0, 0.0, 1.72728564083447E9, 0.0, 2024-09-25 12:34:00.834
122.0, 116085.7964856382, 187500.0, 147534.74563774414, 132663.03481615006, 57630.57561285205, 108973.9184348486, 114957.34631506758, 119032.56106764807, -0.23600000000000002, 0.8200000000000001, 0.514, 192.0, 0.0, 0.0, 0.0, 0.0, 0.0, 0.0, 0.0, 0.0, 0.0, 1.727285640838424E9, 0.0, 2024-09-25 12:34:00.838
123.0, 116079.56034893518, 187500.0, 147504.30256179604, 132663.99594116164, 57613.38712136592, 108980.31103376283, 114966.82345471662, 119037.9478380618, -0.23600000000000002, 0.8200000000000001, 0.514, 192.0, 0.0, 0.0, 0.0, 0.0, 0.0, 0.0, 0.0, 0.0, 0.0, 1.727285640841453E9, 0.0, 2024-09-25 12:34:00.841
124.0, 116087.4505147279, 187500.0, 147473.92654108125, 132659.52559227057, 57598.389100836415, 108973.04671681485, 114964.45416980436, 119032.29284671461, -0.23600000000000002, 0.8200000000000001, 0.514, 192.0, 0.0, 0.0, 0.0, 0.0, 0.0, 0.0, 0.0, 0.0, 0.0, 1.727285640845472E9, 0.0, 2024-09-25 12:34:00.845
125.0, 116103.52141899127, 187500.0, 147515.1208061124, 132667.08048189647, 57627.58047909504, 108975.39364998265, 114967.27048960573, 119038.3948729509, -0.23600000000000002, 0.8200000000000001, 0.514, 192.0, 0.0, 0.0, 0.0, 0.0, 0.0, 0.0, 0.0, 0.0, 0.0, 1.7272856408514493E9, 0.0, 2024-09-25 12:34:00.851
126.0, 116106.53890449273, 187500.0, 147563.48998111367, 132682.43613033727, 57658.38118295446, 108993.14093508017, 114976.32294611013, 119065.12755931946, -0.23600000000000002, 0.8200000000000001, 0.514, 192.0, 0.0, 0.0, 0.0, 0.0, 0.0, 0.0, 0.0, 0.0, 0.0, 1.727285640858478E9, 0.0, 2024-09-25 12:34:00.858
127.0, 116095.29597703171, 187500.0, 147534.49976855514, 132678.8151477355, 57637.63876409993, 108993.94559788056, 114983.07317293563, 119067.31803027607, -0.23600000000000002, 0.8200000000000001, 0.514, 192.0, 0.0, 0.0, 0.0, 0.0, 0.0, 0.0, 0.0, 0.0, 0.0, 1.727285640861508E9, 0.0, 2024-09-25 12:34:00.861
128.0, 116096.48061948785, 187500.0, 147491.87499187887, 132671.37201683188, 57619.64560981341, 108983.99907159795, 114988.52699858273, 119055.53866094812, -0.23600000000000002, 0.8200000000000001, 0.514, 192.0, 0.0, 0.0, 0.0, 0.0, 0.0, 0.0, 0.0, 0.0, 0.0, 1.7272856408645115E9, 0.0, 2024-09-25 12:34:00.864
129.0, 116119.43586104344, 187500.0, 147519.8593759369, 132679.4633483247, 57646.84768281552, 108985.96602511001, 114992.01387071775, 119059.96430635027, -0.23600000000000002, 0.8200000000000001, 0.514, 192.0, 0.0, 0.0, 0.0, 0.0, 0.0, 0.0, 0.0, 0.0, 0.0, 1.7272856408675473E9, 0.0, 2024-09-25 12:34:00.867
130.0, 116123.30271283421, 187500.0, 147571.31309167304, 132692.9190984868, 57677.17900004137, 108997.83480141578, 114995.7913155307, 119074.02355361267, -0.23600000000000002, 0.8200000000000001, 0.514, 192.0, 0.0, 0.0, 0.0, 0.0, 0.0, 0.0, 0.0, 0.0, 0.0, 1.727285640871544E9, 0.0, 2024-09-25 12:34:00.871
131.0, 116109.77990743876, 187500.0, 147555.1304286874, 132691.64504905284, 57664.12558127947, 108999.60058922776, 114996.86419926456, 119079.07504785956, -0.23800000000000002, 0.81, 0.514, 192.0, 248.0, 144.0, 25.0, 80.0, 16.0, 16.0, 0.0, 0.0, 0.0, 1.7272856408745623E9, 0.0, 2024-09-25 12:34:00.874
132.0, 116109.10935510509, 187500.0, 147512.93033515578, 132683.88899372687, 57642.26557520218, 108994.39263276967, 115000.21696093286, 119078.53860599264, -0.23800000000000002, 0.81, 0.514, 192.0, 0.0, 0.0, 0.0, 0.0, 0.0, 0.0, 0.0, 0.0, 0.0, 1.7272856408795748E9, 0.0, 2024-09-25 12:34:00.879
133.0, 116135.77498624027, 187500.0, 147528.68831499678, 132698.19411017824, 57658.850569588016, 109000.11467935023, 115011.59399886061, 119079.52208274866, -0.23800000000000002, 0.81, 0.514, 192.0, 0.0, 0.0, 0.0, 0.0, 0.0, 0.0, 0.0, 0.0, 0.0, 1.72728564088246E9, 0.0, 2024-09-25 12:34:00.882
134.0, 116144.64862878903, 187500.0, 147588.85921107046, 132717.14838947635, 57695.77565142819, 109015.49267953548, 115011.97397851634, 119101.58325452606, -0.23800000000000002, 0.81, 0.514, 192.0, 0.0, 0.0, 0.0, 0.0, 0.0, 0.0, 0.0, 0.0, 0.0, 1.7272856408856027E9, 0.0, 2024-09-25 12:34:00.885
135.0, 116142.81578574369, 187500.0, 147577.34806267597, 132717.9754040212, 57679.77180239819, 109018.44310980357, 115019.90884779798, 119086.92051016337, -0.23800000000000002, 0.81, 0.514, 192.0, 0.0, 0.0, 0.0, 0.0, 0.0, 0.0, 0.0, 0.0, 0.0, 1.7272856408905892E9, 0.0, 2024-09-25 12:34:00.890
136.0, 116142.10052992112, 187500.0, 147541.0264779361, 132716.81311330953, 57661.95746206731, 109032.21178438804, 115032.33641771512, 119089.33449856455, -0.23800000000000002, 0.81, 0.514, 192.0, 0.0, 0.0, 0.0, 0.0, 0.0, 0.0, 0.0, 0.0, 0.0, 1.727285640893594E9, 0.0, 2024-09-25 12:34:00.893
137.0, 116153.58932657115, 187500.0, 147550.99535596315, 132718.91417728833, 57674.005052328714, 109038.31381062434, 115028.76013860229, 119106.16536213939, -0.23800000000000002, 0.81, 0.514, 192.0, 0.0, 0.0, 0.0, 0.0, 0.0, 0.0, 0.0, 0.0, 0.0, 1.7272856408975618E9, 0.0, 2024-09-25 12:34:00.897
138.0, 116175.76225707082, 187500.0, 147605.22068801173, 132733.04047978407, 57706.79506144465, 109043.36530487124, 115035.91269682797, 119115.24017038825, -0.23800000000000002, 0.81, 0.514, 192.0, 0.0, 0.0, 0.0, 0.0, 0.0, 0.0, 0.0, 0.0, 0.0, 1.7272856409005835E9, 0.0, 2024-09-25 12:34:00.900
139.0, 116164.94401275445, 187500.0, 147615.81541488355, 132739.14250602038, 57713.34412257006, 109053.6918108096, 115039.64543815202, 119124.38203387047, -0.23800000000000002, 0.81, 0.514, 192.0, 0.0, 0.0, 0.0, 0.0, 0.0, 0.0, 0.0, 0.0, 0.0, 1.7272856409045632E9, 0.0, 2024-09-25 12:34:00.904
140.0, 116151.33180038117, 187500.0, 147575.22464695273, 132733.68868037328, 57689.62892170298, 109053.2894794094, 115041.14300503052, 119129.88056300647, -0.23800000000000002, 0.81, 0.514, 192.0, 0.0, 0.0, 0.0, 0.0, 0.0, 0.0, 0.0, 0.0, 0.0, 1.7272856409085457E9, 0.0, 2024-09-25 12:34:00.908
141.0, 116169.19084420096, 187500.0, 147565.36752764793, 132739.58954090948, 57691.707633937316, 109055.23408117701, 115052.98942959183, 119125.34315888205, -0.24, 0.804, 0.52, 192.0, 248.0, 128.0, 25.0, 32.0, 16.0, 64.0, 0.0, 0.0, 0.0, 1.7272856409125528E9, 0.0, 2024-09-25 12:34:00.912
142.0, 116186.11111475363, 187500.0, 147619.50345271867, 132753.2241050272, 57727.44807332136, 109062.40899114717, 115053.72703715885, 119141.34700791205, -0.24, 0.804, 0.52, 192.0, 0.0, 0.0, 0.0, 0.0, 0.0, 0.0, 0.0, 0.0, 0.0, 1.7272856409165378E9, 0.0, 2024-09-25 12:34:00.916
143.0, 116188.3686409436, 187500.0, 147637.07192386055, 132760.4437184863, 57734.13124491349, 109063.72774407003, 115064.90290938651, 119136.34021715407, -0.24, 0.804, 0.52, 192.0, 0.0, 0.0, 0.0, 0.0, 0.0, 0.0, 0.0, 0.0, 0.0, 1.7272856409226296E9, 0.0, 2024-09-25 12:34:00.922
144.0, 116178.08683849417, 187500.0, 147602.2479059992, 132754.25228527217, 57713.07590163659, 109066.07467723783, 115064.27706054176, 119137.88248752148, -0.24, 0.804, 0.52, 192.0, 0.0, 0.0, 0.0, 0.0, 0.0, 0.0, 0.0, 0.0, 0.0, 1.7272856409256587E9, 0.0, 2024-09-25 12:34:00.925
145.0, 116192.25784447884, 187500.0, 147584.29945520157, 132754.69932016128, 57707.935000411875, 109064.42064814814, 115063.69591518592, 119140.9670282563, -0.24, 0.804, 0.52, 192.0, 0.0, 0.0, 0.0, 0.0, 0.0, 0.0, 0.0, 0.0, 0.0, 1.727285640929658E9, 0.0, 2024-09-25 12:34:00.929
146.0, 116209.64750166507, 187500.0, 147627.66183944486, 132770.9490383803, 57737.88633798198, 109071.08146799583, 115075.81056068071, 119145.30326668064, -0.24, 0.804, 0.52, 192.0, 0.0, 0.0, 0.0, 0.0, 0.0, 0.0, 0.0, 0.0, 0.0, 1.7272856409326146E9, 0.0, 2024-09-25 12:34:00.932
147.0, 116209.96042608743, 187500.0, 147664.22929337376, 132788.42810254433, 57757.19824519137, 109086.21359899206, 115082.29256657274, 119158.69196160937, -0.24, 0.804, 0.52, 192.0, 0.0, 0.0, 0.0, 0.0, 0.0, 0.0, 0.0, 0.0, 0.0, 1.7272856409366033E9, 0.0, 2024-09-25 12:34:00.936
148.0, 116203.76899287332, 187500.0, 147636.42372327135, 132790.12683512294, 57743.51897758472, 109092.69560488411, 115088.17107536449, 119165.7774646017, -0.24, 0.804, 0.52, 192.0, 0.0, 0.0, 0.0, 0.0, 0.0, 0.0, 0.0, 0.0, 0.0, 1.727285640940666E9, 0.0, 2024-09-25 12:34:00.940
149.0, 116206.49590569687, 187500.0, 147602.5384786771, 132782.86251817495, 57731.493739067766, 109089.85693333829, 115088.64046199805, 119166.51507216872, -0.24, 0.804, 0.52, 192.0, 0.0, 0.0, 0.0, 0.0, 0.0, 0.0, 0.0, 0.0, 0.0, 1.7272856409445937E9, 0.0, 2024-09-25 12:34:00.944
150.0, 116230.14405133059, 187500.0, 147632.80274066958, 132790.26094558966, 57750.89505325497, 109086.52652341445, 115092.19438936644, 119162.31294421112, -0.24, 0.804, 0.52, 192.0, 0.0, 0.0, 0.0, 0.0, 0.0, 0.0, 0.0, 0.0, 0.0, 1.7272856409486752E9, 0.0, 2024-09-25 12:34:00.948
151.0, 116233.89914439907, 187500.0, 147679.67434879235, 132806.8906434644, 57776.778373334215, 109098.26118925348, 115097.64821501354, 119169.95724081484, -0.24, 0.804, 0.52, 192.0, 0.0, 0.0, 0.0, 0.0, 0.0, 0.0, 0.0, 0.0, 0.0, 1.7272856409526691E9, 0.0, 2024-09-25 12:34:00.952
152.0, 116226.2324960509, 187500.0, 147659.51307529368, 132810.2881086216, 57762.741477816286, 109103.75971838948, 115101.80563948222, 119171.25364199324, -0.246, 0.806, 0.516, 192.0, 248.0, 80.0, 25.0, 48.0, 16.0, 32.0, 0.0, 0.0, 0.0, 1.7272856409587076E9, 0.0, 2024-09-25 12:34:00.958
153.0, 116226.00897860635, 187500.0, 147624.8455196435, 132805.25896611917, 57748.36930613152, 109104.85495386779, 115110.58987505316, 119171.6783251379, -0.246, 0.806, 0.516, 192.0, 0.0, 0.0, 0.0, 0.0, 0.0, 0.0, 0.0, 0.0, 0.0, 1.7272856409617033E9, 0.0, 2024-09-25 12:34:00.961
154.0, 116240.51526075785, 187500.0, 147650.12534262246, 132810.35516385498, 57769.804629064165, 109105.45845096809, 115110.65693028652, 119180.5743194311, -0.246, 0.806, 0.516, 192.0, 0.0, 0.0, 0.0, 0.0, 0.0, 0.0, 0.0, 0.0, 0.0, 1.727285640964708E9, 0.0, 2024-09-25 12:34:00.964
155.0, 116252.47344404143, 187500.0, 147701.42259614737, 132827.67776580784, 57801.23118176832, 109110.77816614845, 115120.2681804023, 119181.96012758734, -0.246, 0.806, 0.516, 192.0, 0.0, 0.0, 0.0, 0.0, 0.0, 0.0, 0.0, 0.0, 0.0, 1.7272856409686663E9, 0.0, 2024-09-25 12:34:00.968
156.0, 116245.92438291603, 187500.0, 147693.82300303256, 132836.03731823413, 57795.39737646549, 109120.76939591997, 115128.15834619504, 119184.26235726624, -0.246, 0.806, 0.516, 192.0, 0.0, 0.0, 0.0, 0.0, 0.0, 0.0, 0.0, 0.0, 0.0, 1.7272856409727051E9, 0.0, 2024-09-25 12:34:00.972
157.0, 116250.14886261808, 187500.0, 147656.47323804777, 132835.52322811165, 57778.43240242391, 109128.61485822378, 115134.61800034261, 119197.74045917278, -0.246, 0.806, 0.516, 192.0, 0.0, 0.0, 0.0, 0.0, 0.0, 0.0, 0.0, 0.0, 0.0, 1.7272856409767244E9, 0.0, 2024-09-25 12:34:00.976
158.0, 116273.52878731833, 187500.0, 147660.18362762732, 132835.0091379892, 57786.54608566119, 109125.48561400005, 115139.46832888942, 119190.72201141382, -0.246, 0.806, 0.516, 192.0, 0.0, 0.0, 0.0, 0.0, 0.0, 0.0, 0.0, 0.0, 0.0, 1.7272856409817548E9, 0.0, 2024-09-25 12:34:00.981
159.0, 116280.36842112166, 187500.0, 147715.92887829887, 132848.24137070673, 57823.985257623826, 109137.75672170601, 115141.97172426841, 119204.7365551873, -0.246, 0.806, 0.516, 192.0, 0.0, 0.0, 0.0, 0.0, 0.0, 0.0, 0.0, 0.0, 0.0, 1.7272856409846828E9, 0.0, 2024-09-25 12:34:00.984
160.0, 116273.46173208496, 187500.0, 147723.0590847801, 132856.80208883312, 57823.94055413492, 109150.29605034544, 115144.25160220286, 119218.68404372741, -0.246, 0.806, 0.516, 192.0, 0.0, 0.0, 0.0, 0.0, 0.0, 0.0, 0.0, 0.0, 0.0, 1.7272856409877748E9, 0.0, 2024-09-25 12:34:00.987
161.0, 116270.26543262786, 187500.0, 147681.2613226487, 132853.73989984274, 57799.62185616754, 109153.20177712462, 115148.56548888273, 119217.85702918256, -0.246, 0.806, 0.516, 192.0, 0.0, 0.0, 0.0, 0.0, 0.0, 0.0, 0.0, 0.0, 0.0, 1.7272856409926753E9, 0.0, 2024-09-25 12:34:00.992
162.0, 116281.88833974462, 187500.0, 147687.38570062944, 132859.73016735676, 57811.26711502876, 109160.10846616131, 115154.93573605249, 119231.53629678921, -0.24, 0.8140000000000001, 0.518, 192.0, 248.0, 128.0, 25.0, 112.0, 16.0, 48.0, 0.0, 0.0, 0.0, 1.7272856409967465E9, 0.0, 2024-09-25 12:34:00.996
163.0, 116302.67546208805, 187500.0, 147735.2631372527, 132875.44344370885, 57842.64896424401, 109164.35529760782, 115165.4857594354, 119229.70345374387, -0.24, 0.8140000000000001, 0.518, 192.0, 0.0, 0.0, 0.0, 0.0, 0.0, 0.0, 0.0, 0.0, 0.0, 1.727285641000772E9, 0.0, 2024-09-25 12:34:01.000
164.0, 116301.28965393182, 187500.0, 147744.76262864622, 132887.4239787369, 57847.36518232408, 109173.16188492322, 115172.66066940555, 119224.897828686, -0.24, 0.8140000000000001, 0.518, 192.0, 0.0, 0.0, 0.0, 0.0, 0.0, 0.0, 0.0, 0.0, 0.0, 1.727285641004789E9, 0.0, 2024-09-25 12:34:01.004
165.0, 116292.5948253387, 187500.0, 147709.06689275109, 132882.32778100108, 57826.399246025, 109182.5719693389, 115169.55377692626, 119235.38079683552, -0.24, 0.8140000000000001, 0.518, 192.0, 0.0, 0.0, 0.0, 0.0, 0.0, 0.0, 0.0, 0.0, 0.0, 1.727285641011782E9, 0.0, 2024-09-25 12:34:01.011
166.0, 116307.59284586822, 187500.0, 147697.22046818977, 132882.4171879789, 57822.30887678968, 109183.53309435048, 115175.02995431781, 119238.30887535917, -0.24, 0.8140000000000001, 0.518, 192.0, 0.0, 0.0, 0.0, 0.0, 0.0, 0.0, 0.0, 0.0, 0.0, 1.7272856410147488E9, 0.0, 2024-09-25 12:34:01.014
167.0, 116327.41884320008, 187500.0, 147745.70140191333, 132897.0128771082, 57857.244653373324, 109186.99761474105, 115188.50805622437, 119243.65094228399, -0.24, 0.8140000000000001, 0.518, 192.0, 0.0, 0.0, 0.0, 0.0, 0.0, 0.0, 0.0, 0.0, 0.0, 1.727285641018818E9, 0.0, 2024-09-25 12:34:01.018
168.0, 116322.47910767545, 187500.0, 147774.26693132723, 132907.0711621131, 57873.38261287005, 109194.61955960031, 115188.17278005753, 119257.08434070162, -0.24, 0.8140000000000001, 0.518, 192.0, 0.0, 0.0, 0.0, 0.0, 0.0, 0.0, 0.0, 0.0, 0.0, 1.727285641021761E9, 0.0, 2024-09-25 12:34:01.021
169.0, 116323.1049565202, 187500.0, 147738.34767798753, 132907.54054874665, 57851.88023470405, 109195.3795189118, 115195.6382627056, 119251.6975702879, -0.24, 0.8140000000000001, 0.518, 192.0, 0.0, 0.0, 0.0, 0.0, 0.0, 0.0, 0.0, 0.0, 0.0, 1.727285641024719E9, 0.0, 2024-09-25 12:34:01.024
170.0, 116329.6540176456, 187500.0, 147714.09603525355, 132906.89234815745, 57844.3029933337, 109197.88291429078, 115198.90161739608, 119255.27384940075, -0.24, 0.8140000000000001, 0.518, 192.0, 0.0, 0.0, 0.0, 0.0, 0.0, 0.0, 0.0, 0.0, 0.0, 1.727285641029775E9, 0.0, 2024-09-25 12:34:01.029
171.0, 116346.2613637759, 187500.0, 147765.34858528955, 132924.23730185477, 57877.69649954993, 109212.45625167564, 115200.2427220634, 119281.76066658029, -0.24, 0.8140000000000001, 0.518, 192.0, 0.0, 0.0, 0.0, 0.0, 0.0, 0.0, 0.0, 0.0, 0.0, 1.727285641033743E9, 0.0, 2024-09-25 12:34:01.033
172.0, 116348.74240741043, 187500.0, 147799.1891263949, 132934.2285316263, 57897.589552115154, 109219.4746994346, 115206.5459139998, 119286.96862303838, -0.248, 0.81, 0.52, 192.0, 248.0, 64.0, 25.0, 80.0, 16.0, 64.0, 0.0, 0.0, 0.0, 1.7272856410368097E9, 0.0, 2024-09-25 12:34:01.036
173.0, 116330.95041882401, 187500.0, 147772.32232955963, 132931.52397054722, 57884.26791241979, 109227.8342518609, 115211.32918731323, 119299.21737899988, -0.248, 0.81, 0.52, 192.0, 0.0, 0.0, 0.0, 0.0, 0.0, 0.0, 0.0, 0.0, 0.0, 1.7272856410418625E9, 0.0, 2024-09-25 12:34:01.041
174.0, 116334.92902933706, 187500.0, 147733.00561106272, 132923.0750111431, 57863.41373484299, 109218.80414710095, 115216.49244028241, 119292.69066961894, -0.248, 0.81, 0.52, 192.0, 0.0, 0.0, 0.0, 0.0, 0.0, 0.0, 0.0, 0.0, 0.0, 1.727285641044781E9, 0.0, 2024-09-25 12:34:01.044
175.0, 116362.5110819949, 187500.0, 147761.86171315453, 132928.81940946812, 57885.25138917582, 109216.18899299968, 115222.41565256307, 119289.87434981756, -0.248, 0.81, 0.52, 192.0, 0.0, 0.0, 0.0, 0.0, 0.0, 0.0, 0.0, 0.0, 0.0, 1.7272856410478337E9, 0.0, 2024-09-25 12:34:01.047
176.0, 116371.34002105476, 187500.0, 147811.72845503432, 132940.88935147398, 57917.75082561384, 109224.16856577022, 115224.31555084177, 119304.26887324678, -0.248, 0.81, 0.52, 192.0, 0.0, 0.0, 0.0, 0.0, 0.0, 0.0, 0.0, 0.0, 0.0, 1.7272856410527713E9, 0.0, 2024-09-25 12:34:01.052
177.0, 116363.98629712895, 187500.0, 147794.40585308147, 132942.25280788576, 57904.04920626274, 109228.79537687247, 115224.67317875304, 119309.70034714942, -0.248, 0.81, 0.52, 192.0, 0.0, 0.0, 0.0, 0.0, 0.0, 0.0, 0.0, 0.0, 0.0, 1.7272856410568628E9, 0.0, 2024-09-25 12:34:01.056
178.0, 116360.85705290522, 187500.0, 147757.9725096193, 132940.3305578626, 57887.41950838799, 109233.80216763046, 115237.5030800704, 119315.17652454098, -0.248, 0.81, 0.52, 192.0, 0.0, 0.0, 0.0, 0.0, 0.0, 0.0, 0.0, 0.0, 0.0, 1.7272856410608506E9, 0.0, 2024-09-25 12:34:01.060
179.0, 116381.6218235042, 187500.0, 147782.71589073134, 132949.94180797838, 57908.20663073142, 109239.70302816667, 115247.89664124211, 119321.79264089974, -0.248, 0.81, 0.52, 192.0, 0.0, 0.0, 0.0, 0.0, 0.0, 0.0, 0.0, 0.0, 0.0, 1.72728564106382E9, 0.0, 2024-09-25 12:34:01.063
180.0, 116387.23211136248, 187500.0, 147832.62733610003, 132960.5365348502, 57935.475758966895, 109246.22973754762, 115245.61676330767, 119327.15705956901, -0.248, 0.81, 0.52, 192.0, 0.0, 0.0, 0.0, 0.0, 0.0, 0.0, 0.0, 0.0, 0.0, 1.7272856410688293E9, 0.0, 2024-09-25 12:34:01.068
181.0, 116372.9716984, 187500.0, 147829.07340873164, 132961.40825288396, 57929.21727051941, 109254.1869585737, 115243.2027749065, 119340.34458879764, -0.248, 0.81, 0.52, 192.0, 0.0, 0.0, 0.0, 0.0, 0.0, 0.0, 0.0, 0.0, 0.0, 1.7272856410738995E9, 0.0, 2024-09-25 12:34:01.073
182.0, 116373.57519550029, 187500.0, 147783.52055353174, 132954.2333429138, 57902.70810159542, 109250.20834806065, 115252.72461804446, 119333.79552767225, -0.242, 0.81, 0.522, 192.0, 248.0, 112.0, 25.0, 80.0, 16.0, 80.0, 0.0, 0.0, 0.0, 1.72728564107684E9, 0.0, 2024-09-25 12:34:01.076
183.0, 116397.29039636736, 187500.0, 147793.7353007478, 132961.2294389283, 57915.4709476794, 109252.82350216193, 115264.32517341676, 119332.83440266066, -0.242, 0.81, 0.522, 192.0, 0.0, 0.0, 0.0, 0.0, 0.0, 0.0, 0.0, 0.0, 0.0, 1.727285641080855E9, 0.0, 2024-09-25 12:34:01.080
184.0, 116408.24275115046, 187500.0, 147850.77695259775, 132974.10404373455, 57952.552491730756, 109263.06060112246, 115261.03946698183, 119345.88782142257, -0.242, 0.81, 0.522, 192.0, 0.0, 0.0, 0.0, 0.0, 0.0, 0.0, 0.0, 0.0, 0.0, 1.7272856410849347E9, 0.0, 2024-09-25 12:34:01.084
185.0, 116404.01827144841, 187500.0, 147854.91202532197, 132979.8931455485, 57950.920814385514, 109269.16262735876, 115266.4038856511, 119348.72649296839, -0.242, 0.81, 0.522, 192.0, 0.0, 0.0, 0.0, 0.0, 0.0, 0.0, 0.0, 0.0, 0.0, 1.7272856410889475E9, 0.0, 2024-09-25 12:34:01.088
186.0, 116398.25152137894, 187500.0, 147811.95197247888, 132975.42279665743, 57925.3727704731, 109270.81665644846, 115270.1589787196, 119345.77606270029, -0.242, 0.81, 0.522, 192.0, 0.0, 0.0, 0.0, 0.0, 0.0, 0.0, 0.0, 0.0, 0.0, 1.7272856410929067E9, 0.0, 2024-09-25 12:34:01.092
187.0, 116411.37199537421, 187500.0, 147803.05597818567, 132978.0379507587, 57927.74205538536, 109271.06252563746, 115278.5632346348, 119342.28919056527, -0.242, 0.81, 0.522, 192.0, 0.0, 0.0, 0.0, 0.0, 0.0, 0.0, 0.0, 0.0, 0.0, 1.7272856410969312E9, 0.0, 2024-09-25 12:34:01.096
188.0, 116428.29226592688, 187500.0, 147856.9460340674, 132994.53353816672, 57967.66227098254, 109280.5396652865, 115290.94610106303, 119351.58751625867, -0.242, 0.81, 0.522, 192.0, 0.0, 0.0, 0.0, 0.0, 0.0, 0.0, 0.0, 0.0, 0.0, 1.7272856411009345E9, 0.0, 2024-09-25 12:34:01.100
189.0, 116419.57508558931, 187500.0, 147882.18115355744, 132998.95918356886, 57978.547570532275, 109296.16353466077, 115276.28335670035, 119381.71766778443, -0.242, 0.81, 0.522, 192.0, 0.0, 0.0, 0.0, 0.0, 0.0, 0.0, 0.0, 0.0, 0.0, 1.7272856411039488E9, 0.0, 2024-09-25 12:34:01.103
190.0, 116416.24467566547, 187500.0, 147838.52819663624, 132991.44899743187, 57949.44559925146, 109296.2976451275, 115283.63708062615, 119379.30367938324, -0.242, 0.81, 0.522, 192.0, 0.0, 0.0, 0.0, 0.0, 0.0, 0.0, 0.0, 0.0, 0.0, 1.7272856411079075E9, 0.0, 2024-09-25 12:34:01.107
191.0, 116432.24852469546, 187500.0, 147818.45633011535, 132993.21478524385, 57942.15893055903, 109294.86713348236, 115298.94802557804, 119366.45142632145, -0.242, 0.81, 0.522, 192.0, 0.0, 0.0, 0.0, 0.0, 0.0, 0.0, 0.0, 0.0, 0.0, 1.7272856411129282E9, 0.0, 2024-09-25 12:34:01.112
192.0, 116446.2407167245, 187500.0, 147872.7934208862, 133010.96207034137, 57981.36389033365, 109307.83114526643, 115300.19972326753, 119385.33865038618, -0.242, 0.81, 0.522, 192.0, 0.0, 0.0, 0.0, 0.0, 0.0, 0.0, 0.0, 0.0, 0.0, 1.7272856411168957E9, 0.0, 2024-09-25 12:34:01.116
193.0, 116445.86073706875, 187500.0, 147899.07907236565, 133023.3896402585, 57997.61360855265, 109315.47544187015, 115307.44168847105, 119392.20063593396, -0.242, 0.81, 0.526, 192.0, 248.0, 112.0, 25.0, 80.0, 16.0, 112.0, 0.0, 0.0, 0.0, 1.7272856411209695E9, 0.0, 2024-09-25 12:34:01.120
194.0, 116439.49048989899, 187500.0, 147862.17634226996, 133021.95912861338, 57973.51842802983, 109315.18486919224, 115315.10833681922, 119383.7740282743, -0.242, 0.81, 0.526, 192.0, 0.0, 0.0, 0.0, 0.0, 0.0, 0.0, 0.0, 0.0, 0.0, 1.7272856411239536E9, 0.0, 2024-09-25 12:34:01.123
195.0, 116442.6867893561, 187500.0, 147838.46114140286, 133020.1039338236, 57962.2307970799, 109317.12947095984, 115312.13555480666, 119389.2278539214, -0.242, 0.81, 0.526, 192.0, 0.0, 0.0, 0.0, 0.0, 0.0, 0.0, 0.0, 0.0, 0.0, 1.727285641127936E9, 0.0, 2024-09-25 12:34:01.127
196.0, 116457.57305116333, 187500.0, 147880.147144812, 133028.21761706087, 57993.076204428224, 109321.21984019516, 115310.973264095, 119409.12090648663, -0.242, 0.81, 0.526, 192.0, 0.0, 0.0, 0.0, 0.0, 0.0, 0.0, 0.0, 0.0, 0.0, 1.7272856411319325E9, 0.0, 2024-09-25 12:34:01.131
197.0, 116469.35242049128, 187500.0, 147907.81860444768, 133038.03003287673, 58004.87792550062, 109319.72227331666, 115317.29880777583, 119395.0840109687, -0.242, 0.81, 0.526, 192.0, 0.0, 0.0, 0.0, 0.0, 0.0, 0.0, 0.0, 0.0, 0.0, 1.72728564113897E9, 0.0, 2024-09-25 12:34:01.138
198.0, 116458.60123140828, 187500.0, 147887.99260711583, 133038.7452886993, 57990.68456777151, 109324.63965709684, 115319.24340954346, 119401.186037205, -0.242, 0.81, 0.526, 192.0, 0.0, 0.0, 0.0, 0.0, 0.0, 0.0, 0.0, 0.0, 0.0, 1.7272856411429644E9, 0.0, 2024-09-25 12:34:01.142
199.0, 116465.82084486734, 187500.0, 147858.644766646, 133038.52177125475, 57976.938244931494, 109327.2548111981, 115322.39500551164, 119409.00914776436, -0.242, 0.81, 0.526, 192.0, 0.0, 0.0, 0.0, 0.0, 0.0, 0.0, 0.0, 0.0, 0.0, 1.7272856411459303E9, 0.0, 2024-09-25 12:34:01.145
200.0, 116493.64876671419, 187500.0, 147896.37451128656, 133059.66652150947, 58011.62815232613, 109343.12454976137, 115344.36677031122, 119423.44837468248, -0.242, 0.81, 0.526, 192.0, 0.0, 0.0, 0.0, 0.0, 0.0, 0.0, 0.0, 0.0, 0.0, 1.7272856411499887E9, 0.0, 2024-09-25 12:34:01.149
201.0, 116504.8022871974, 187500.0, 147950.6221950796, 133085.08045495517, 58046.74274286542, 109361.72120114819, 115361.1752821416, 119441.48623245792, -0.242, 0.81, 0.526, 192.0, 0.0, 0.0, 0.0, 0.0, 0.0, 0.0, 0.0, 0.0, 0.0, 1.727285641153008E9, 0.0, 2024-09-25 12:34:01.153
202.0, 116502.85768542979, 187500.0, 147938.7757705183, 133093.6188213371, 58035.87979506014, 109368.22555878467, 115368.99839270096, 119446.51537496036, -0.242, 0.81, 0.526, 192.0, 0.0, 0.0, 0.0, 0.0, 0.0, 0.0, 0.0, 0.0, 0.0, 1.7272856411559868E9, 0.0, 2024-09-25 12:34:01.155
203.0, 116511.12783087825, 187500.0, 147904.39878754603, 133096.43514113847, 58020.72531231944, 109377.52388447808, 115373.91577648114, 119453.39971225259, -0.242, 0.8140000000000001, 0.522, 192.0, 248.0, 112.0, 25.0, 112.0, 16.0, 80.0, 0.0, 0.0, 0.0, 1.7272856411600196E9, 0.0, 2024-09-25 12:34:01.160
204.0, 116536.89939223521, 187500.0, 147928.9186512135, 133110.13676048955, 58041.13245500714, 109389.3703090394, 115381.71653529603, 119470.31998280526, -0.242, 0.8140000000000001, 0.522, 192.0, 0.0, 0.0, 0.0, 0.0, 0.0, 0.0, 0.0, 0.0, 0.0, 1.7272856411650503E9, 0.0, 2024-09-25 12:34:01.165
205.0, 116547.33765689585, 187500.0, 147985.04388154077, 133124.95596706343, 58069.16154255409, 109395.62879748689, 115384.48815160849, 119482.88166318914, -0.242, 0.8140000000000001, 0.522, 192.0, 0.0, 0.0, 0.0, 0.0, 0.0, 0.0, 0.0, 0.0, 0.0, 1.7272856411690106E9, 0.0, 2024-09-25 12:34:01.169
206.0, 116533.85955498929, 187500.0, 147985.4238611965, 133124.93361531897, 58061.42783897255, 109403.13898362387, 115386.47745686502, 119497.63381452965, -0.242, 0.8140000000000001, 0.522, 192.0, 0.0, 0.0, 0.0, 0.0, 0.0, 0.0, 0.0, 0.0, 0.0, 1.7272856411720097E9, 0.0, 2024-09-25 12:34:01.172
207.0, 116530.12681366525, 187500.0, 147928.94100295796, 133105.2640801983, 58025.55328912179, 109389.12443985039, 115377.31324163835, 119479.3500875652, -0.242, 0.8140000000000001, 0.522, 192.0, 0.0, 0.0, 0.0, 0.0, 0.0, 0.0, 0.0, 0.0, 0.0, 1.7272856411760993E9, 0.0, 2024-09-25 12:34:01.176
208.0, 116540.31920913688, 187500.0, 147923.15190114404, 133101.3078214297, 58034.18106248153, 109379.37907926788, 115386.70097430957, 119468.196567082, -0.242, 0.8140000000000001, 0.522, 192.0, 0.0, 0.0, 0.0, 0.0, 0.0, 0.0, 0.0, 0.0, 0.0, 1.7272856411800067E9, 0.0, 2024-09-25 12:34:01.180
209.0, 116540.63213355925, 187500.0, 147967.78833482126, 133112.43899016845, 58067.954548353504, 109378.90969263432, 115393.5853116018, 119464.50852924687, -0.242, 0.8140000000000001, 0.522, 192.0, 0.0, 0.0, 0.0, 0.0, 0.0, 0.0, 0.0, 0.0, 0.0, 1.727285641184076E9, 0.0, 2024-09-25 12:34:01.184
210.0, 116531.11029042129, 187500.0, 147977.98073029288, 133118.89864431604, 58074.07892633426, 109386.8222101715, 115403.6883000956, 119473.04689562881, -0.242, 0.8140000000000001, 0.522, 192.0, 0.0, 0.0, 0.0, 0.0, 0.0, 0.0, 0.0, 0.0, 0.0, 1.727285641204106E9, 0.0, 2024-09-25 12:34:01.204
211.0, 116527.04227293043, 187500.0, 147934.55129081622, 133109.10858024462, 58047.905033577095, 109383.80472467003, 115406.6387303637, 119472.26458457287, -0.242, 0.8140000000000001, 0.522, 192.0, 0.0, 0.0, 0.0, 0.0, 0.0, 0.0, 0.0, 0.0, 0.0, 1.7272856412070549E9, 0.0, 2024-09-25 12:34:01.207
212.0, 116540.83329925935, 187500.0, 147930.39386634756, 133109.7791325783, 58052.26362374588, 109388.47623926119, 115408.24805596449, 119482.47933178894, -0.242, 0.8140000000000001, 0.522, 192.0, 0.0, 0.0, 0.0, 0.0, 0.0, 0.0, 0.0, 0.0, 0.0, 1.7272856412101247E9, 0.0, 2024-09-25 12:34:01.210
213.0, 116555.18311919966, 187500.0, 147987.50257343086, 133124.8218565967, 58085.098336350726, 109400.81440220051, 115406.14699198569, 119499.60076804171, -0.244, 0.812, 0.514, 192.0, 248.0, 96.0, 25.0, 96.0, 16.0, 16.0, 0.0, 0.0, 0.0, 1.7272856412130759E9, 0.0, 2024-09-25 12:34:01.213
214.0, 116554.46786337708, 187500.0, 148005.9427626065, 133136.22124626892, 58091.71445270949, 109407.98931217067, 115412.47253566654, 119495.57745403975, -0.244, 0.812, 0.514, 192.0, 0.0, 0.0, 0.0, 0.0, 0.0, 0.0, 0.0, 0.0, 0.0, 1.7272856412170727E9, 0.0, 2024-09-25 12:34:01.217
215.0, 116544.54368883892, 187500.0, 147966.1790092205, 133130.47684794388, 58068.42393498706, 109407.98931217067, 115409.29858795389, 119494.66103251709, -0.244, 0.812, 0.514, 192.0, 0.0, 0.0, 0.0, 0.0, 0.0, 0.0, 0.0, 0.0, 0.0, 1.7272856412201188E9, 0.0, 2024-09-25 12:34:01.220
216.0, 116557.93238376766, 187500.0, 147943.55904383172, 133128.06285954273, 58059.9526238385, 109409.24100986017, 115419.78155610342, 119488.51430279188, -0.244, 0.812, 0.514, 192.0, 0.0, 0.0, 0.0, 0.0, 0.0, 0.0, 0.0, 0.0, 0.0, 1.7272856412231083E9, 0.0, 2024-09-25 12:34:01.223
217.0, 116577.40075318824, 187500.0, 147991.14590777707, 133141.76447889383, 58094.01668238839, 109416.5723820415, 115421.86026833777, 119497.49970406291, -0.244, 0.812, 0.514, 192.0, 0.0, 0.0, 0.0, 0.0, 0.0, 0.0, 0.0, 0.0, 0.0, 1.727285641227141E9, 0.0, 2024-09-25 12:34:01.227
218.0, 116571.58929962985, 187500.0, 148025.12055934913, 133152.29215053227, 58108.59001977325, 109424.3731408564, 115421.59204740431, 119512.34126238123, -0.244, 0.812, 0.514, 192.0, 0.0, 0.0, 0.0, 0.0, 0.0, 0.0, 0.0, 0.0, 0.0, 1.7272856412300968E9, 0.0, 2024-09-25 12:34:01.230
219.0, 116565.84490130484, 187500.0, 147988.91073333155, 133149.7216999199, 58089.36751954169, 109422.65205653335, 115429.07988179683, 119506.10512567821, -0.244, 0.812, 0.514, 192.0, 0.0, 0.0, 0.0, 0.0, 0.0, 0.0, 0.0, 0.0, 0.0, 1.7272856412330904E9, 0.0, 2024-09-25 12:34:01.233
220.0, 116572.48336940806, 187500.0, 147956.25483468233, 133147.24065628537, 58079.80097291482, 109421.26624837713, 115432.70086439859, 119508.20618965701, -0.244, 0.812, 0.514, 192.0, 0.0, 0.0, 0.0, 0.0, 0.0, 0.0, 0.0, 0.0, 0.0, 1.727285641236114E9, 0.0, 2024-09-25 12:34:01.236
221.0, 116593.53871268497, 187500.0, 147994.3869107231, 133159.04237735778, 58110.55697328532, 109427.05535019105, 115439.85342262429, 119515.82813451627, -0.244, 0.812, 0.514, 192.0, 0.0, 0.0, 0.0, 0.0, 0.0, 0.0, 0.0, 0.0, 0.0, 1.7272856412391315E9, 0.0, 2024-09-25 12:34:01.239
222.0, 116600.6242156773, 187500.0, 148040.5432630233, 133174.4427292875, 58134.875671252696, 109437.89594625187, 115450.02346635146, 119520.70081480753, -0.244, 0.812, 0.514, 192.0, 0.0, 0.0, 0.0, 0.0, 0.0, 0.0, 0.0, 0.0, 0.0, 1.7272856412431352E9, 0.0, 2024-09-25 12:34:01.243
223.0, 116585.35797421432, 187500.0, 148019.82319591322, 133173.16867985352, 58119.16239490061, 109440.95813524225, 115450.47050124056, 119527.3169311663, -0.24, 0.8180000000000001, 0.514, 192.0, 248.0, 128.0, 25.0, 144.0, 16.0, 16.0, 0.0, 0.0, 0.0, 1.7272856412461708E9, 0.0, 2024-09-25 12:34:01.246
224.0, 116587.95077657113, 187500.0, 147974.76207909134, 133168.69833096248, 58096.3636155562, 109436.19721367327, 115455.00790536498, 119512.63183505916, -0.24, 0.8180000000000001, 0.514, 192.0, 0.0, 0.0, 0.0, 0.0, 0.0, 0.0, 0.0, 0.0, 0.0, 1.7272856412491765E9, 0.0, 2024-09-25 12:34:01.249
225.0, 116608.84965763685, 187500.0, 147999.46075671446, 133179.15894736754, 58119.98940944546, 109442.14277769838, 115461.55696649039, 119511.17897166956, -0.24, 0.8180000000000001, 0.514, 192.0, 0.0, 0.0, 0.0, 0.0, 0.0, 0.0, 0.0, 0.0, 0.0, 1.7272856412531855E9, 0.0, 2024-09-25 12:34:01.253
226.0, 116618.90794264173, 187500.0, 148054.66956551906, 133195.27455511983, 58149.65017433765, 109455.2856034381, 115462.78631243543, 119526.7581375549, -0.24, 0.8180000000000001, 0.514, 192.0, 0.0, 0.0, 0.0, 0.0, 0.0, 0.0, 0.0, 0.0, 0.0, 1.7272856412561927E9, 0.0, 2024-09-25 12:34:01.256
227.0, 116611.86714313831, 187500.0, 148046.08649564823, 133199.47668307743, 58141.87176726721, 109459.57713837351, 115475.77267596396, 119528.14394571114, -0.24, 0.8180000000000001, 0.514, 192.0, 0.0, 0.0, 0.0, 0.0, 0.0, 0.0, 0.0, 0.0, 0.0, 1.7272856412592125E9, 0.0, 2024-09-25 12:34:01.259
228.0, 116604.17814304569, 187500.0, 148011.62010569812, 133196.74977025387, 58124.1691856586, 109466.52853089912, 115480.13126613275, 119538.15752722711, -0.24, 0.8180000000000001, 0.514, 192.0, 0.0, 0.0, 0.0, 0.0, 0.0, 0.0, 0.0, 0.0, 0.0, 1.7272856412621377E9, 0.0, 2024-09-25 12:34:01.262
229.0, 116618.41620426372, 187500.0, 148020.35963778014, 133197.15210165406, 58135.903851497635, 109467.2437867217, 115480.13126613275, 119544.86305056371, -0.24, 0.8180000000000001, 0.514, 192.0, 0.0, 0.0, 0.0, 0.0, 0.0, 0.0, 0.0, 0.0, 0.0, 1.7272856412661893E9, 0.0, 2024-09-25 12:34:01.266
230.0, 116636.40935855024, 187500.0, 148069.22055115947, 133209.15498842657, 58164.581139633796, 109471.66943212385, 115485.40627782421, 119541.44323366205, -0.24, 0.8180000000000001, 0.514, 192.0, 0.0, 0.0, 0.0, 0.0, 0.0, 0.0, 0.0, 0.0, 0.0, 1.727285641269197E9, 0.0, 2024-09-25 12:34:01.269
231.0, 116624.38412003328, 187500.0, 148078.38476638612, 133216.6428228191, 58167.5315699019, 109487.51681894265, 115488.02143192547, 119558.5646699148, -0.24, 0.8180000000000001, 0.514, 192.0, 0.0, 0.0, 0.0, 0.0, 0.0, 0.0, 0.0, 0.0, 0.0, 1.7272856412732327E9, 0.0, 2024-09-25 12:34:01.273
232.0, 116623.69121595517, 187500.0, 148033.43540828652, 133212.39599137258, 58141.089456211266, 109488.90262709888, 115500.31489137589, 119551.8144430893, -0.24, 0.8180000000000001, 0.514, 192.0, 0.0, 0.0, 0.0, 0.0, 0.0, 0.0, 0.0, 0.0, 0.0, 1.7272856412762268E9, 0.0, 2024-09-25 12:34:01.276
233.0, 116630.26262882503, 187500.0, 148034.50829202036, 133210.16081692706, 58150.32072667131, 109488.5449991876, 115496.5597983074, 119563.01266706141, -0.24, 0.8180000000000001, 0.514, 192.0, 0.0, 0.0, 0.0, 0.0, 0.0, 0.0, 0.0, 0.0, 0.0, 1.7272856412802596E9, 0.0, 2024-09-25 12:34:01.280
234.0, 116651.47443431312, 187500.0, 148085.202048445, 133221.85077927719, 58182.99897706497, 109487.5391706871, 115500.27018788698, 119566.65600140764, -0.246, 0.81, 0.518, 192.0, 248.0, 80.0, 25.0, 80.0, 16.0, 48.0, 0.0, 0.0, 0.0, 1.7272856412842188E9, 0.0, 2024-09-25 12:34:01.284
235.0, 116649.26161161205, 187500.0, 148098.43428116254, 133230.9479392705, 58187.75989863395, 109492.3894992339, 115507.1098216903, 119568.2206235195, -0.246, 0.81, 0.518, 192.0, 0.0, 0.0, 0.0, 0.0, 0.0, 0.0, 0.0, 0.0, 0.0, 1.7272856412882159E9, 0.0, 2024-09-25 12:34:01.288
236.0, 116647.54052728899, 187500.0, 148054.35664109667, 133227.52812236885, 58160.82604656531, 109490.53430444413, 115511.8707432593, 119557.98352455898, -0.246, 0.81, 0.518, 192.0, 0.0, 0.0, 0.0, 0.0, 0.0, 0.0, 0.0, 0.0, 0.0, 1.7272856412922044E9, 0.0, 2024-09-25 12:34:01.292
237.0, 116660.01280069504, 187500.0, 148039.87271068964, 133225.40470664558, 58158.88144479769, 109486.2427695087, 115512.78716478196, 119555.92716406909, -0.246, 0.81, 0.518, 192.0, 0.0, 0.0, 0.0, 0.0, 0.0, 0.0, 0.0, 0.0, 0.0, 1.7272856412962675E9, 0.0, 2024-09-25 12:34:01.296
238.0, 116676.06135321395, 187500.0, 148083.12333621067, 133233.76425907188, 58187.24580851148, 109485.79573461959, 115509.8143827694, 119558.67642863709, -0.246, 0.81, 0.518, 192.0, 0.0, 0.0, 0.0, 0.0, 0.0, 0.0, 0.0, 0.0, 0.0, 1.727285641300273E9, 0.0, 2024-09-25 12:34:01.300
239.0, 116672.46272235665, 187500.0, 148113.94639181453, 133245.2530557219, 58203.584933708305, 109500.50318247119, 115510.23906591405, 119579.35179225824, -0.246, 0.81, 0.518, 192.0, 0.0, 0.0, 0.0, 0.0, 0.0, 0.0, 0.0, 0.0, 0.0, 1.7272856413042789E9, 0.0, 2024-09-25 12:34:01.304
240.0, 116668.57351882143, 187500.0, 148086.52080136788, 133249.18696274603, 58189.19041027909, 109512.68488319933, 115530.08741499037, 119592.0252313644, -0.246, 0.81, 0.518, 192.0, 0.0, 0.0, 0.0, 0.0, 0.0, 0.0, 0.0, 0.0, 0.0, 1.7272856413082428E9, 0.0, 2024-09-25 12:34:01.308
241.0, 116680.91168176076, 187500.0, 148065.0407749463, 133251.46684068046, 58184.5859509213, 109518.45163326879, 115551.25451698955, 119593.94748138756, -0.246, 0.81, 0.518, 192.0, 0.0, 0.0, 0.0, 0.0, 0.0, 0.0, 0.0, 0.0, 0.0, 1.727285641312219E9, 0.0, 2024-09-25 12:34:01.312
242.0, 116695.57442612344, 187500.0, 148107.08440626675, 133264.54261118683, 58214.000846624476, 109525.93946766133, 115553.98142981308, 119603.29051056987, -0.246, 0.81, 0.518, 192.0, 0.0, 0.0, 0.0, 0.0, 0.0, 0.0, 0.0, 0.0, 0.0, 1.7272856413152933E9, 0.0, 2024-09-25 12:34:01.315
243.0, 116692.17696096623, 187500.0, 148142.69073518406, 133276.99253284844, 58234.966782923555, 109533.82963345405, 115553.35558096833, 119619.51787704443, -0.246, 0.81, 0.518, 192.0, 0.0, 0.0, 0.0, 0.0, 0.0, 0.0, 0.0, 0.0, 0.0, 1.7272856413202937E9, 0.0, 2024-09-25 12:34:01.320
244.0, 116675.14493169129, 187500.0, 148106.8608888222, 133267.02365482136, 58204.90368663117, 109531.03566539714, 115542.40322618524, 119624.65877826915, -0.248, 0.8180000000000001, 0.51, 192.0, 248.0, 64.0, 25.0, 144.0, 15.0, 240.0, 0.0, 0.0, 0.0, 1.7272856413243139E9, 0.0, 2024-09-25 12:34:01.324
245.0, 116685.22556844063, 187500.0, 148070.4498971045, 133262.57565767475, 58183.89304684318, 109528.21934559576, 115555.00961005803, 119620.00961542244, -0.248, 0.8180000000000001, 0.51, 192.0, 0.0, 0.0, 0.0, 0.0, 0.0, 0.0, 0.0, 0.0, 0.0, 1.7272856413283184E9, 0.0, 2024-09-25 12:34:01.328
246.0, 116711.69003387571, 187500.0, 148099.57422012975, 133271.40459673462, 58203.04849184138, 109528.17464210685, 115566.69957240815, 119613.01351940793, -0.248, 0.8180000000000001, 0.51, 192.0, 0.0, 0.0, 0.0, 0.0, 0.0, 0.0, 0.0, 0.0, 0.0, 1.727285641332245E9, 0.0, 2024-09-25 12:34:01.332
247.0, 116723.82703111495, 187500.0, 148143.8083224068, 133292.3034778003, 58227.47894853103, 109543.84321497002, 115583.55278772746, 119611.11362112923, -0.248, 0.8180000000000001, 0.51, 192.0, 0.0, 0.0, 0.0, 0.0, 0.0, 0.0, 0.0, 0.0, 0.0, 1.7272856413353355E9, 0.0, 2024-09-25 12:34:01.335
248.0, 116711.04183328651, 187500.0, 148126.4633687095, 133295.07509411278, 58214.40317802467, 109553.29800287462, 115589.31953779692, 119615.62867350921, -0.248, 0.8180000000000001, 0.51, 192.0, 0.0, 0.0, 0.0, 0.0, 0.0, 0.0, 0.0, 0.0, 0.0, 1.727285641341308E9, 0.0, 2024-09-25 12:34:01.341
249.0, 116718.86494384587, 187500.0, 148084.956179256, 133293.9128034011, 58195.58300919331, 109551.82278774057, 115600.60716874685, 119607.67145248312, -0.248, 0.8180000000000001, 0.51, 192.0, 0.0, 0.0, 0.0, 0.0, 0.0, 0.0, 0.0, 0.0, 0.0, 1.727285641344349E9, 0.0, 2024-09-25 12:34:01.344
250.0, 116729.28085676204, 187500.0, 148109.47604292346, 133296.99734413592, 58215.20784082507, 109557.47777908776, 115596.91913091173, 119629.06207192685, -0.248, 0.8180000000000001, 0.51, 192.0, 0.0, 0.0, 0.0, 0.0, 0.0, 0.0, 0.0, 0.0, 0.0, 1.7272856413483496E9, 0.0, 2024-09-25 12:34:01.348
251.0, 116741.551964468, 187500.0, 148162.74024996045, 133311.3248123318, 58246.05324817339, 109565.4126483694, 115603.42348854823, 119643.16602267815, -0.248, 0.8180000000000001, 0.51, 192.0, 0.0, 0.0, 0.0, 0.0, 0.0, 0.0, 0.0, 0.0, 0.0, 1.72728564135333E9, 0.0, 2024-09-25 12:34:01.353
252.0, 116723.78232762603, 187500.0, 148165.60127325074, 133314.7669809779, 58245.315640606364, 109576.02972698567, 115603.11056412585, 119672.35740093677, -0.248, 0.8180000000000001, 0.51, 192.0, 0.0, 0.0, 0.0, 0.0, 0.0, 0.0, 0.0, 0.0, 0.0, 1.7272856413563697E9, 0.0, 2024-09-25 12:34:01.356
253.0, 116718.9990543126, 187500.0, 148117.54502267184, 133306.83211169628, 58215.27489605843, 109575.82856128557, 115602.90939842575, 119671.64214511421, -0.248, 0.8180000000000001, 0.51, 192.0, 0.0, 0.0, 0.0, 0.0, 0.0, 0.0, 0.0, 0.0, 0.0, 1.727285641360385E9, 0.0, 2024-09-25 12:34:01.360
254.0, 116744.14476682481, 187500.0, 148118.03676104985, 133312.0177164099, 58221.399274039184, 109574.08512521806, 115610.4419363072, 119657.44878738509, -0.246, 0.8140000000000001, 0.514, 192.0, 248.0, 80.0, 25.0, 112.0, 16.0, 16.0, 0.0, 0.0, 0.0, 1.727285641363308E9, 0.0, 2024-09-25 12:34:01.363
255.0, 116750.1573860833, 187500.0, 148176.44186931156, 133326.1216671612, 58260.33601288033, 109584.90336953443, 115612.67711075272, 119677.83357832833, -0.246, 0.8140000000000001, 0.514, 192.0, 0.0, 0.0, 0.0, 0.0, 0.0, 0.0, 0.0, 0.0, 0.0, 1.727285641367326E9, 0.0, 2024-09-25 12:34:01.367
0.0, 116745.61998195887, 187500.0, 148177.38064257868, 133331.64254804165, 58257.36323086778, 109591.40772717092, 115621.17077364575, 119678.86175857327, -0.246, 0.8140000000000001, 0.514, 192.0, 0.0, 0.0, 0.0, 0.0, 0.0, 0.0, 0.0, 0.0, 0.0, 1.727285641371328E9, 0.0, 2024-09-25 12:34:01.371
1.0, 116747.72104593767, 187500.0, 148128.1173977992, 133323.14888514864, 58227.501300275486, 109586.57975036858, 115631.47492783963, 119662.3438194208, -0.246, 0.8140000000000001, 0.514, 192.0, 0.0, 0.0, 0.0, 0.0, 0.0, 0.0, 0.0, 0.0, 0.0, 1.7272856413754044E9, 0.0, 2024-09-25 12:34:01.375
2.0, 116762.45084553372, 187500.0, 148124.2058425195, 133326.09931541674, 58231.055227643876, 109586.7138608353, 115634.24654415209, 119664.42253165515, -0.246, 0.8140000000000001, 0.514, 192.0, 0.0, 0.0, 0.0, 0.0, 0.0, 0.0, 0.0, 0.0, 0.0, 1.727285641380331E9, 0.0, 2024-09-25 12:34:01.380
3.0, 116772.97851717217, 187500.0, 148179.83933446876, 133341.83494351327, 58265.72278329406, 109596.88390456246, 115633.75480577408, 119677.58770913932, -0.246, 0.8140000000000001, 0.514, 192.0, 0.0, 0.0, 0.0, 0.0, 0.0, 0.0, 0.0, 0.0, 0.0, 1.727285641391331E9, 0.0, 2024-09-25 12:34:01.391
4.0, 116768.41876130328, 187500.0, 148203.8227562693, 133356.6765018316, 58276.45162063261, 109611.79251811416, 115645.46711986866, 119689.25531974499, -0.246, 0.8140000000000001, 0.514, 192.0, 0.0, 0.0, 0.0, 0.0, 0.0, 0.0, 0.0, 0.0, 0.0, 1.7272856413943489E9, 0.0, 2024-09-25 12:34:01.394
5.0, 116763.47902577867, 187500.0, 148167.09884012924, 133357.01177799844, 58255.463332589075, 109619.25800076223, 115659.05698049748, 119690.03763080093, -0.246, 0.8140000000000001, 0.514, 192.0, 0.0, 0.0, 0.0, 0.0, 0.0, 0.0, 0.0, 0.0, 0.0, 1.727285641397345E9, 0.0, 2024-09-25 12:34:01.397
6.0, 116777.60532827441, 187500.0, 148156.2135405795, 133360.476298389, 58253.96576571057, 109625.31532350963, 115663.14734973281, 119698.21836927156, -0.246, 0.8140000000000001, 0.514, 192.0, 0.0, 0.0, 0.0, 0.0, 0.0, 0.0, 0.0, 0.0, 0.0, 1.7272856414013498E9, 0.0, 2024-09-25 12:34:01.401
7.0, 116792.066906937, 187500.0, 148208.24840167147, 133372.0321502724, 58286.7557748265, 109632.84786139106, 115658.20761420818, 119713.21638980108, -0.246, 0.8140000000000001, 0.514, 192.0, 0.0, 0.0, 0.0, 0.0, 0.0, 0.0, 0.0, 0.0, 0.0, 1.727285641404416E9, 0.0, 2024-09-25 12:34:01.404
8.0, 116785.2719766226, 187500.0, 148233.32705895032, 133376.0778160188, 58297.21639123159, 109636.7817684152, 115652.68673332772, 119715.45156424661, -0.246, 0.8140000000000001, 0.504, 192.0, 248.0, 80.0, 25.0, 112.0, 15.0, 192.0, 0.0, 0.0, 0.0, 1.727285641407457E9, 0.0, 2024-09-25 12:34:01.407
9.0, 116776.5100927961, 187500.0, 148194.21150615354, 133367.09241474778, 58269.83550427383, 109635.9771056148, 115656.37477116285, 119704.27569201896, -0.246, 0.8140000000000001, 0.504, 192.0, 0.0, 0.0, 0.0, 0.0, 0.0, 0.0, 0.0, 0.0, 0.0, 1.7272856414104536E9, 0.0, 2024-09-25 12:34:01.410
10.0, 116782.14273239885, 187500.0, 148164.0813546278, 133366.75713858096, 58254.92689072215, 109636.49119573727, 115661.47096889866, 119699.8053431279, -0.246, 0.8140000000000001, 0.504, 192.0, 0.0, 0.0, 0.0, 0.0, 0.0, 0.0, 0.0, 0.0, 0.0, 1.7272856414144373E9, 0.0, 2024-09-25 12:34:01.414
11.0, 116805.61206407692, 187500.0, 148210.86355577272, 133386.5384324239, 58292.43311791815, 109647.89058540948, 115672.11039925939, 119713.46225899008, -0.246, 0.8140000000000001, 0.504, 192.0, 0.0, 0.0, 0.0, 0.0, 0.0, 0.0, 0.0, 0.0, 0.0, 1.7272856414174767E9, 0.0, 2024-09-25 12:34:01.417
12.0, 116810.86472402391, 187500.0, 148258.6962889071, 133404.79980764387, 58325.580754945375, 109659.84876869307, 115683.37567846486, 119730.78486094295, -0.246, 0.8140000000000001, 0.504, 192.0, 0.0, 0.0, 0.0, 0.0, 0.0, 0.0, 0.0, 0.0, 0.0, 1.7272856414204588E9, 0.0, 2024-09-25 12:34:01.420
13.0, 116791.70927902572, 187500.0, 148233.21530022804, 133402.11759830924, 58308.504022181514, 109664.05089665066, 115680.69346913022, 119740.99960815902, -0.246, 0.8140000000000001, 0.504, 192.0, 0.0, 0.0, 0.0, 0.0, 0.0, 0.0, 0.0, 0.0, 0.0, 1.7272856414244876E9, 0.0, 2024-09-25 12:34:01.424
14.0, 116798.77243027359, 187500.0, 148189.91997121813, 133394.3838947277, 58283.44771664712, 109659.75936171525, 115685.6555563993, 119732.28242782145, -0.246, 0.8140000000000001, 0.504, 192.0, 0.0, 0.0, 0.0, 0.0, 0.0, 0.0, 0.0, 0.0, 0.0, 1.7272856414274166E9, 0.0, 2024-09-25 12:34:01.427
15.0, 116822.01824450711, 187500.0, 148208.69543656058, 133400.30710700835, 58299.496269166026, 109657.54653901418, 115692.65165241381, 119717.15029682522, -0.246, 0.8140000000000001, 0.504, 192.0, 0.0, 0.0, 0.0, 0.0, 0.0, 0.0, 0.0, 0.0, 0.0, 1.7272856414314322E9, 0.0, 2024-09-25 12:34:01.431
16.0, 116821.25828519562, 187500.0, 148259.36684124076, 133414.07578159284, 58333.00153410454, 109671.9857659323, 115699.84891412842, 119737.69154997965, -0.246, 0.8140000000000001, 0.504, 192.0, 0.0, 0.0, 0.0, 0.0, 0.0, 0.0, 0.0, 0.0, 0.0, 1.7272856414364517E9, 0.0, 2024-09-25 12:34:01.436
17.0, 116809.38950888986, 187500.0, 148249.08503879132, 133414.85809264876, 58325.20077528963, 109679.20537939137, 115707.24734154313, 119749.3144570964, -0.246, 0.8140000000000001, 0.504, 192.0, 0.0, 0.0, 0.0, 0.0, 0.0, 0.0, 0.0, 0.0, 0.0, 1.7272856414415035E9, 0.0, 2024-09-25 12:34:01.441
18.0, 116803.60040707594, 187500.0, 148212.0258464844, 133405.71622916654, 58305.39712970223, 109678.6912892689, 115701.34648100693, 119757.20462288913, -0.246, 0.8140000000000001, 0.504, 192.0, 0.0, 0.0, 0.0, 0.0, 0.0, 0.0, 0.0, 0.0, 0.0, 1.7272856414445057E9, 0.0, 2024-09-25 12:34:01.444
19.0, 116831.60714287843, 187500.0, 148222.9782012675, 133408.91252862365, 58315.54482168494, 109673.0362979217, 115707.73907992114, 119750.78967223046, -0.248, 0.8180000000000001, 0.51, 192.0, 248.0, 64.0, 25.0, 144.0, 15.0, 240.0, 0.0, 0.0, 0.0, 1.7272856414485269E9, 0.0, 2024-09-25 12:34:01.448
20.0, 116839.36319820443, 187500.0, 148272.12968732475, 133421.36245028526, 58345.47380751059, 109674.2879956112, 115710.68951018924, 119753.11425365381, -0.248, 0.8180000000000001, 0.51, 192.0, 0.0, 0.0, 0.0, 0.0, 0.0, 0.0, 0.0, 0.0, 0.0, 1.7272856414515228E9, 0.0, 2024-09-25 12:34:01.451
21.0, 116828.54495388806, 187500.0, 148261.60201568628, 133424.983432887, 58339.19296731865, 109676.21024563436, 115723.1170801064, 119742.29600933743, -0.248, 0.8180000000000001, 0.51, 192.0, 0.0, 0.0, 0.0, 0.0, 0.0, 0.0, 0.0, 0.0, 0.0, 1.7272856414555397E9, 0.0, 2024-09-25 12:34:01.455
22.0, 116818.75488981664, 187500.0, 148218.91018377664, 133417.0932670943, 58314.606048417816, 109671.82930372111, 115722.11125160591, 119737.9150674242, -0.248, 0.8180000000000001, 0.51, 192.0, 0.0, 0.0, 0.0, 0.0, 0.0, 0.0, 0.0, 0.0, 0.0, 1.7272856414594824E9, 0.0, 2024-09-25 12:34:01.459
23.0, 116831.54008764507, 187500.0, 148225.72746583552, 133418.54613048388, 58323.3679322443, 109676.16554214545, 115724.569943496, 119745.82758496137, -0.248, 0.8180000000000001, 0.51, 192.0, 0.0, 0.0, 0.0, 0.0, 0.0, 0.0, 0.0, 0.0, 0.0, 1.727285641464512E9, 0.0, 2024-09-25 12:34:01.464
24.0, 116844.59350640698, 187500.0, 148278.7458036835, 133432.15834285718, 58355.777961704494, 109686.42499285043, 115730.62726624338, 119757.09286416684, -0.248, 0.8180000000000001, 0.51, 192.0, 0.0, 0.0, 0.0, 0.0, 0.0, 0.0, 0.0, 0.0, 0.0, 1.7272856414685085E9, 0.0, 2024-09-25 12:34:01.468
25.0, 116842.80536685055, 187500.0, 148293.52030676848, 133444.8541337078, 58365.59037752037, 109700.48424011281, 115741.93724893776, 119767.8664049943, -0.248, 0.8180000000000001, 0.51, 192.0, 0.0, 0.0, 0.0, 0.0, 0.0, 0.0, 0.0, 0.0, 0.0, 1.727285641471442E9, 0.0, 2024-09-25 12:34:01.471
26.0, 116831.96477078972, 187500.0, 148255.38823072772, 133442.5519040289, 58341.62930746428, 109706.22863843784, 115744.39594082785, 119777.00826847652, -0.248, 0.8180000000000001, 0.51, 192.0, 0.0, 0.0, 0.0, 0.0, 0.0, 0.0, 0.0, 0.0, 0.0, 1.7272856414755473E9, 0.0, 2024-09-25 12:34:01.475
27.0, 116845.88990758538, 187500.0, 148243.45239918857, 133445.07765115233, 58337.02484810649, 109705.02164423725, 115751.05676067554, 119774.43781786416, -0.248, 0.8180000000000001, 0.51, 192.0, 0.0, 0.0, 0.0, 0.0, 0.0, 0.0, 0.0, 0.0, 0.0, 1.7272856414794908E9, 0.0, 2024-09-25 12:34:01.479
28.0, 116865.11240781694, 187500.0, 148296.33662656983, 133460.18743040413, 58372.005328179046, 109713.8505832971, 115759.9751067132, 119782.95383250163, -0.248, 0.8180000000000001, 0.51, 192.0, 0.0, 0.0, 0.0, 0.0, 0.0, 0.0, 0.0, 0.0, 0.0, 1.7272856414845326E9, 0.0, 2024-09-25 12:34:01.484
29.0, 116861.80434963756, 187500.0, 148322.97990596056, 133472.72675904355, 58386.71277603064, 109728.87095557105, 115762.25498464763, 119798.4212396647, -0.25, 0.8140000000000001, 0.504, 192.0, 248.0, 48.0, 25.0, 112.0, 15.0, 192.0, 0.0, 0.0, 0.0, 1.7272856414885728E9, 0.0, 2024-09-25 12:34:01.488
30.0, 116853.19892802226, 187500.0, 148281.76328918498, 133467.07176769635, 58358.9742611616, 109724.26649621327, 115762.88083349238, 119791.96158551713, -0.25, 0.8140000000000001, 0.504, 192.0, 0.0, 0.0, 0.0, 0.0, 0.0, 0.0, 0.0, 0.0, 0.0, 1.727285641491544E9, 0.0, 2024-09-25 12:34:01.491
31.0, 116853.10952104445, 187500.0, 148264.8430186323, 133465.08246243984, 58359.73422047308, 109724.91469680247, 115769.72046729572, 119801.3716699328, -0.25, 0.8140000000000001, 0.504, 192.0, 0.0, 0.0, 0.0, 0.0, 0.0, 0.0, 0.0, 0.0, 0.0, 1.7272856414966102E9, 0.0, 2024-09-25 12:34:01.496
32.0, 116868.82279739653, 187500.0, 148304.07033015136, 133471.22919216505, 58381.48246782809, 109722.38894967902, 115770.10044695144, 119792.00628900604, -0.25, 0.8140000000000001, 0.504, 192.0, 0.0, 0.0, 0.0, 0.0, 0.0, 0.0, 0.0, 0.0, 0.0, 1.7272856414995568E9, 0.0, 2024-09-25 12:34:01.499
33.0, 116874.3883817659, 187500.0, 148336.68152531167, 133484.48377662705, 58398.425090125216, 109731.86608932808, 115776.85067377695, 119790.84399829437, -0.25, 0.8140000000000001, 0.504, 192.0, 0.0, 0.0, 0.0, 0.0, 0.0, 0.0, 0.0, 0.0, 0.0, 1.7272856415036027E9, 0.0, 2024-09-25 12:34:01.503
34.0, 116865.06770432803, 187500.0, 148302.0139696615, 133479.00759923548, 58376.31921485892, 109735.08474052964, 115778.70586856674, 119789.18996920467, -0.25, 0.8140000000000001, 0.504, 192.0, 0.0, 0.0, 0.0, 0.0, 0.0, 0.0, 0.0, 0.0, 0.0, 1.727285641510597E9, 0.0, 2024-09-25 12:34:01.510
35.0, 116873.94134687679, 187500.0, 148272.75553616948, 133475.29720965592, 58359.77892396199, 109735.48707192983, 115779.44347613378, 119793.25798669553, -0.25, 0.8140000000000001, 0.504, 192.0, 0.0, 0.0, 0.0, 0.0, 0.0, 0.0, 0.0, 0.0, 0.0, 1.7272856415136104E9, 0.0, 2024-09-25 12:34:01.513
36.0, 116890.52634126262, 187500.0, 148311.62521977726, 133482.82974753735, 58387.53979057548, 109742.0584847997, 115786.46192389274, 119812.54754216046, -0.25, 0.8140000000000001, 0.504, 192.0, 0.0, 0.0, 0.0, 0.0, 0.0, 0.0, 0.0, 0.0, 0.0, 1.7272856415176313E9, 0.0, 2024-09-25 12:34:01.517
37.0, 116879.90926264635, 187500.0, 148355.23347320958, 133487.0542272394, 58413.33370367691, 109747.08762730213, 115779.30936566704, 119831.52417320303, -0.25, 0.8140000000000001, 0.504, 192.0, 0.0, 0.0, 0.0, 0.0, 0.0, 0.0, 0.0, 0.0, 0.0, 1.7272856415206232E9, 0.0, 2024-09-25 12:34:01.520
38.0, 116868.0851898295, 187500.0, 148329.4619118526, 133486.16015746119, 58396.01110172404, 109746.93116509095, 115788.29476693807, 119826.45032721167, -0.25, 0.8140000000000001, 0.504, 192.0, 0.0, 0.0, 0.0, 0.0, 0.0, 0.0, 0.0, 0.0, 0.0, 1.7272856415245547E9, 0.0, 2024-09-25 12:34:01.524
39.0, 116874.88012014392, 187500.0, 148287.68650146562, 133483.00856149298, 58377.03447068149, 109743.04196155572, 115803.22573223422, 119819.67774864171, -0.23600000000000002, 0.812, 0.514, 192.0, 248.0, 160.0, 25.0, 96.0, 16.0, 16.0, 0.0, 0.0, 0.0, 1.72728564152763E9, 0.0, 2024-09-25 12:34:01.527
40.0, 116898.23769309971, 187500.0, 148313.72628375606, 133490.94343077464, 58398.44744186967, 109745.36654297907, 115798.35305194296, 119824.4833736996, -0.23600000000000002, 0.812, 0.514, 192.0, 0.0, 0.0, 0.0, 0.0, 0.0, 0.0, 0.0, 0.0, 0.0, 1.7272856415316572E9, 0.0, 2024-09-25 12:34:01.531
41.0, 116903.60211176898, 187500.0, 148369.56094140542, 133504.48858791456, 58434.05377078698, 109756.76593265128, 115800.76704034413, 119843.66117044225, -0.23600000000000002, 0.812, 0.514, 192.0, 0.0, 0.0, 0.0, 0.0, 0.0, 0.0, 0.0, 0.0, 0.0, 1.7272856415356195E9, 0.0, 2024-09-25 12:34:01.535
42.0, 116889.0958296175, 187500.0, 148359.1226767448, 133503.1027797583, 58424.82250032693, 109759.53754896374, 115802.39871768937, 119854.27824905852, -0.23600000000000002, 0.812, 0.514, 192.0, 0.0, 0.0, 0.0, 0.0, 0.0, 0.0, 0.0, 0.0, 0.0, 1.7272856415396743E9, 0.0, 2024-09-25 12:34:01.539
43.0, 116894.77317270913, 187500.0, 148305.50084179651, 133493.98326802056, 58394.714700545635, 109750.21687152587, 115809.12659277042, 119833.87110637083, -0.23600000000000002, 0.812, 0.514, 192.0, 0.0, 0.0, 0.0, 0.0, 0.0, 0.0, 0.0, 0.0, 0.0, 1.7272856415436833E9, 0.0, 2024-09-25 12:34:01.543
44.0, 116909.838248472, 187500.0, 148315.98380994605, 133495.12320698777, 58406.3376076624, 109747.17703427996, 115810.49004918219, 119832.99938833708, -0.23600000000000002, 0.812, 0.514, 192.0, 0.0, 0.0, 0.0, 0.0, 0.0, 0.0, 0.0, 0.0, 0.0, 1.7272856415477078E9, 0.0, 2024-09-25 12:34:01.547
45.0, 116920.83530674402, 187500.0, 148375.9311885752, 133512.57991940738, 58442.90506159128, 109759.04581058573, 115812.85933409445, 119851.46192925716, -0.23600000000000002, 0.812, 0.514, 192.0, 0.0, 0.0, 0.0, 0.0, 0.0, 0.0, 0.0, 0.0, 0.0, 1.727285641552694E9, 0.0, 2024-09-25 12:34:01.552
46.0, 116912.92278920684, 187500.0, 148378.25576999853, 133520.58184392238, 58439.55229992298, 109767.27125254528, 115818.9837120752, 119858.56978399394, -0.23600000000000002, 0.812, 0.514, 192.0, 0.0, 0.0, 0.0, 0.0, 0.0, 0.0, 0.0, 0.0, 0.0, 1.7272856415556488E9, 0.0, 2024-09-25 12:34:01.555
47.0, 116903.22213211324, 187500.0, 148337.08385671186, 133513.85396884131, 58417.04409325649, 109769.28290954625, 115821.4424039653, 119865.32001081944, -0.23600000000000002, 0.812, 0.514, 192.0, 0.0, 0.0, 0.0, 0.0, 0.0, 0.0, 0.0, 0.0, 0.0, 1.7272856415596957E9, 0.0, 2024-09-25 12:34:01.559
48.0, 116919.02481544315, 187500.0, 148332.63585956526, 133514.14454151923, 58418.1393287348, 109768.29943279021, 115822.35882548796, 119865.00708639708, -0.23600000000000002, 0.812, 0.514, 192.0, 0.0, 0.0, 0.0, 0.0, 0.0, 0.0, 0.0, 0.0, 0.0, 1.727285641563678E9, 0.0, 2024-09-25 12:34:01.563
49.0, 116930.82653651555, 187500.0, 148384.08957530136, 133527.35442249232, 58450.370544239355, 109776.34606079412, 115822.3364737435, 119873.92543243474, -0.23800000000000002, 0.81, 0.51, 192.0, 248.0, 144.0, 25.0, 80.0, 15.0, 240.0, 0.0, 0.0, 0.0, 1.727285641568755E9, 0.0, 2024-09-25 12:34:01.568
50.0, 116922.01994920016, 187500.0, 148401.03219759848, 133538.88792263126, 58461.7475821671, 109791.38878481255, 115836.26161053916, 119885.72715350713, -0.23800000000000002, 0.81, 0.51, 192.0, 0.0, 0.0, 0.0, 0.0, 0.0, 0.0, 0.0, 0.0, 0.0, 1.7272856415727289E9, 0.0, 2024-09-25 12:34:01.572
51.0, 116918.55542880959, 187500.0, 148362.4307349242, 133534.64109118475, 58440.044038301, 109796.0602994037, 115847.48218625573, 119885.61539478487, -0.23800000000000002, 0.81, 0.51, 192.0, 0.0, 0.0, 0.0, 0.0, 0.0, 0.0, 0.0, 0.0, 0.0, 1.727285641575722E9, 0.0, 2024-09-25 12:34:01.575
52.0, 116934.82749877304, 187500.0, 148349.53377837347, 133532.8753033728, 58438.88174758932, 109801.62588377309, 115850.23145082373, 119891.49390357661, -0.23800000000000002, 0.81, 0.51, 192.0, 0.0, 0.0, 0.0, 0.0, 0.0, 0.0, 0.0, 0.0, 0.0, 1.7272856415797915E9, 0.0, 2024-09-25 12:34:01.579
53.0, 116946.76333031218, 187500.0, 148386.54826719145, 133536.54098946345, 58458.61833794336, 109798.02725291578, 115845.336418788, 119882.24028137211, -0.23800000000000002, 0.81, 0.51, 192.0, 0.0, 0.0, 0.0, 0.0, 0.0, 0.0, 0.0, 0.0, 0.0, 1.727285641583665E9, 0.0, 2024-09-25 12:34:01.583
54.0, 116941.71183606528, 187500.0, 148412.09631110387, 133548.38741402476, 58470.66592820477, 109804.41985183, 115853.62891598094, 119883.13435115032, -0.23800000000000002, 0.81, 0.51, 192.0, 0.0, 0.0, 0.0, 0.0, 0.0, 0.0, 0.0, 0.0, 0.0, 1.7272856415877585E9, 0.0, 2024-09-25 12:34:01.587
55.0, 116934.78279528413, 187500.0, 148384.33544449037, 133550.17555358118, 58455.13146580833, 109813.9193432235, 115865.6988579868, 119892.27621463254, -0.23800000000000002, 0.81, 0.51, 192.0, 0.0, 0.0, 0.0, 0.0, 0.0, 0.0, 0.0, 0.0, 0.0, 1.7272856415917487E9, 0.0, 2024-09-25 12:34:01.591
56.0, 116944.68461807784, 187500.0, 148352.7077260861, 133542.97829186657, 58438.74763712259, 109805.15745939701, 115866.79409346511, 119881.27915636053, -0.23800000000000002, 0.81, 0.51, 192.0, 0.0, 0.0, 0.0, 0.0, 0.0, 0.0, 0.0, 0.0, 0.0, 1.7272856415957725E9, 0.0, 2024-09-25 12:34:01.595
57.0, 116964.13063575396, 187500.0, 148390.9739125936, 133549.14737333625, 58465.9497101247, 109802.81052622921, 115863.19546260781, 119882.12852264983, -0.23800000000000002, 0.81, 0.51, 192.0, 0.0, 0.0, 0.0, 0.0, 0.0, 0.0, 0.0, 0.0, 0.0, 1.7272856415997732E9, 0.0, 2024-09-25 12:34:01.599
58.0, 116957.82744381756, 187500.0, 148427.04962814448, 133558.95978915214, 58488.27910283555, 109812.64529378955, 115861.11675037346, 119892.36562161037, -0.23800000000000002, 0.81, 0.51, 192.0, 0.0, 0.0, 0.0, 0.0, 0.0, 0.0, 0.0, 0.0, 0.0, 1.7272856416037757E9, 0.0, 2024-09-25 12:34:01.603
59.0, 116950.16079546939, 187500.0, 148396.83006964088, 133560.23383858608, 58468.542512481516, 109818.3226368812, 115872.47143655676, 119889.59400529791, -0.23800000000000002, 0.81, 0.51, 192.0, 0.0, 0.0, 0.0, 0.0, 0.0, 0.0, 0.0, 0.0, 0.0, 1.7272856416077979E9, 0.0, 2024-09-25 12:34:01.607
60.0, 116955.74873158321, 187500.0, 148368.39865069374, 133558.84803042986, 58457.23252978713, 109823.21766891691, 115874.95248019129, 119895.18194141173, -0.23800000000000002, 0.8140000000000001, 0.51, 192.0, 248.0, 144.0, 25.0, 112.0, 15.0, 240.0, 0.0, 0.0, 0.0, 1.727285641610783E9, 0.0, 2024-09-25 12:34:01.610
61.0, 116976.93818532684, 187500.0, 148397.88060163028, 133562.93839966517, 58479.517219009074, 109821.45188110493, 115879.04284942662, 119898.4005926133, -0.23800000000000002, 0.8140000000000001, 0.51, 192.0, 0.0, 0.0, 0.0, 0.0, 0.0, 0.0, 0.0, 0.0, 0.0, 1.7272856416168106E9, 0.0, 2024-09-25 12:34:01.616
62.0, 116980.26859525069, 187500.0, 148442.0923521629, 133575.7235974936, 58504.7076350102, 109826.61513407412, 115883.04381168411, 119905.01670897206, -0.23800000000000002, 0.8140000000000001, 0.51, 192.0, 0.0, 0.0, 0.0, 0.0, 0.0, 0.0, 0.0, 0.0, 0.0, 1.7272856416197803E9, 0.0, 2024-09-25 12:34:01.619
63.0, 116966.18699624384, 187500.0, 148422.19929959768, 133577.35527483886, 58492.034195904045, 109830.72785505389, 115890.19636990981, 119911.43165963075, -0.23800000000000002, 0.8140000000000001, 0.51, 192.0, 0.0, 0.0, 0.0, 0.0, 0.0, 0.0, 0.0, 0.0, 0.0, 1.7272856416237636E9, 0.0, 2024-09-25 12:34:01.623
64.0, 116966.09758926602, 187500.0, 148380.4238892107, 133568.74985322356, 58471.73881193862, 109826.16809918502, 115889.2575966427, 119911.74458405311, -0.23800000000000002, 0.8140000000000001, 0.51, 192.0, 0.0, 0.0, 0.0, 0.0, 0.0, 0.0, 0.0, 0.0, 0.0, 1.7272856416277769E9, 0.0, 2024-09-25 12:34:01.627
65.0, 116984.91775809739, 187500.0, 148402.28389528798, 133574.7177689931, 58487.67560573526, 109824.80464277323, 115887.13418091944, 119913.17509569826, -0.23800000000000002, 0.8140000000000001, 0.51, 192.0, 0.0, 0.0, 0.0, 0.0, 0.0, 0.0, 0.0, 0.0, 0.0, 1.7272856416318045E9, 0.0, 2024-09-25 12:34:01.631
66.0, 116992.58440644556, 187500.0, 148462.11951519485, 133592.42035060172, 58522.74549278564, 109839.80266330275, 115894.46555310077, 119930.14006973983, -0.23800000000000002, 0.8140000000000001, 0.51, 192.0, 0.0, 0.0, 0.0, 0.0, 0.0, 0.0, 0.0, 0.0, 0.0, 1.7272856416347823E9, 0.0, 2024-09-25 12:34:01.634
67.0, 116981.29677549563, 187500.0, 148462.29832915048, 133597.91887973773, 58523.93013524177, 109853.81720707622, 115901.32753864856, 119951.2177647612, -0.23800000000000002, 0.8140000000000001, 0.51, 192.0, 0.0, 0.0, 0.0, 0.0, 0.0, 0.0, 0.0, 0.0, 0.0, 1.7272856416387844E9, 0.0, 2024-09-25 12:34:01.638
68.0, 116982.99550807424, 187500.0, 148414.95733439416, 133589.02288544452, 58494.470536049674, 109848.58689887368, 115903.98739623874, 119943.0146745461, -0.23800000000000002, 0.8140000000000001, 0.51, 192.0, 0.0, 0.0, 0.0, 0.0, 0.0, 0.0, 0.0, 0.0, 0.0, 1.7272856416427932E9, 0.0, 2024-09-25 12:34:01.642
69.0, 117001.56980771659, 187500.0, 148413.19154658218, 133588.19587089968, 58500.01376867459, 109844.76475057182, 115908.74831780772, 119930.36358718439, -0.23800000000000002, 0.8140000000000001, 0.51, 192.0, 0.0, 0.0, 0.0, 0.0, 0.0, 0.0, 0.0, 0.0, 0.0, 1.7272856416477993E9, 0.0, 2024-09-25 12:34:01.647
70.0, 117007.56007523062, 187500.0, 148469.65205307628, 133601.76337978404, 58534.65897258031, 109852.85608206465, 115906.06610847308, 119946.50154668112, -0.242, 0.8160000000000001, 0.512, 192.0, 248.0, 112.0, 25.0, 128.0, 16.0, 0.0, 0.0, 0.0, 0.0, 1.7272856416518E9, 0.0, 2024-09-25 12:34:01.651
71.0, 116998.0158803482, 187500.0, 148480.71616658167, 133610.05587697696, 58537.72116157069, 109862.55673915824, 115919.63361735745, 119957.3644944864, -0.242, 0.8160000000000001, 0.512, 192.0, 0.0, 0.0, 0.0, 0.0, 0.0, 0.0, 0.0, 0.0, 0.0, 1.7272856416558213E9, 0.0, 2024-09-25 12:34:01.655
72.0, 116999.4687437378, 187500.0, 148427.45195954468, 133601.91984199523, 58504.77469024357, 109856.94645129997, 115927.47907966127, 119930.94473254023, -0.242, 0.8160000000000001, 0.512, 192.0, 0.0, 0.0, 0.0, 0.0, 0.0, 0.0, 0.0, 0.0, 0.0, 1.7272856416638727E9, 0.0, 2024-09-25 12:34:01.663
73.0, 117014.13148810048, 187500.0, 148426.22261359962, 133607.84305427587, 58510.51908856858, 109865.79774210427, 115931.54709715213, 119937.53849715454, -0.242, 0.8160000000000001, 0.512, 192.0, 0.0, 0.0, 0.0, 0.0, 0.0, 0.0, 0.0, 0.0, 0.0, 1.727285641667832E9, 0.0, 2024-09-25 12:34:01.667
74.0, 117025.48617428377, 187500.0, 148482.32549218246, 133623.57868237243, 58549.05349600953, 109876.45952420945, 115930.13893725145, 119961.43251197727, -0.242, 0.8160000000000001, 0.512, 192.0, 0.0, 0.0, 0.0, 0.0, 0.0, 0.0, 0.0, 0.0, 0.0, 1.7272856416709056E9, 0.0, 2024-09-25 12:34:01.670
75.0, 117018.82535443609, 187500.0, 148498.5975621459, 133627.64669986328, 58553.03210652258, 109880.14756204457, 115927.90376280592, 119970.03793359255, -0.242, 0.8160000000000001, 0.512, 192.0, 0.0, 0.0, 0.0, 0.0, 0.0, 0.0, 0.0, 0.0, 0.0, 1.7272856416739051E9, 0.0, 2024-09-25 12:34:01.673
76.0, 117009.88465665397, 187500.0, 148454.11759067985, 133620.04710674848, 58525.58416433146, 109873.91142534155, 115930.00482678472, 119961.52191895508, -0.242, 0.8160000000000001, 0.512, 192.0, 0.0, 0.0, 0.0, 0.0, 0.0, 0.0, 0.0, 0.0, 0.0, 1.7272856416769824E9, 0.0, 2024-09-25 12:34:01.676
77.0, 117017.97598814679, 187500.0, 148434.00102067008, 133615.30853692396, 58518.34219912794, 109867.00473630485, 115929.42368142887, 119956.91745959729, -0.242, 0.8160000000000001, 0.512, 192.0, 0.0, 0.0, 0.0, 0.0, 0.0, 0.0, 0.0, 0.0, 0.0, 1.7272856416809049E9, 0.0, 2024-09-25 12:34:01.680
78.0, 117040.28302911318, 187500.0, 148472.96011125567, 133624.36099342836, 58543.10793198442, 109865.10483802615, 115932.41881518588, 119947.0156368036, -0.242, 0.8160000000000001, 0.512, 192.0, 0.0, 0.0, 0.0, 0.0, 0.0, 0.0, 0.0, 0.0, 0.0, 1.7272856416839013E9, 0.0, 2024-09-25 12:34:01.683
79.0, 117038.31607560112, 187500.0, 148502.9561523147, 133637.1461912568, 58561.70458337123, 109881.42161147852, 115937.42560594388, 119959.82318637648, -0.242, 0.8160000000000001, 0.512, 192.0, 0.0, 0.0, 0.0, 0.0, 0.0, 0.0, 0.0, 0.0, 0.0, 1.7272856416879764E9, 0.0, 2024-09-25 12:34:01.687
80.0, 117026.20143010635, 187500.0, 148473.7424223116, 133638.1967232462, 58545.5666238745, 109891.30108252777, 115940.35368446753, 119972.98836386066, -0.23800000000000002, 0.8160000000000001, 0.52, 192.0, 248.0, 144.0, 25.0, 128.0, 16.0, 64.0, 0.0, 0.0, 0.0, 1.7272856416909852E9, 0.0, 2024-09-25 12:34:01.690
81.0, 117033.93513368788, 187500.0, 148443.61227078584, 133635.80508658948, 58533.92136501329, 109889.02120459333, 115949.40614097193, 119964.78527364557, -0.23800000000000002, 0.8160000000000001, 0.52, 192.0, 0.0, 0.0, 0.0, 0.0, 0.0, 0.0, 0.0, 0.0, 0.0, 1.7272856416949804E9, 0.0, 2024-09-25 12:34:01.694
82.0, 117048.50847107274, 187500.0, 148483.01839626057, 133643.18116225972, 58562.44219093826, 109894.76560291834, 115949.9649345833, 119975.53646272856, -0.23800000000000002, 0.8160000000000001, 0.52, 192.0, 0.0, 0.0, 0.0, 0.0, 0.0, 0.0, 0.0, 0.0, 0.0, 1.7272856416989503E9, 0.0, 2024-09-25 12:34:01.698
83.0, 117054.54344207566, 187500.0, 148518.24474552213, 133654.6476071653, 58580.480048713696, 109900.01826286534, 115952.8706613625, 119975.067076095, -0.23800000000000002, 0.8160000000000001, 0.52, 192.0, 0.0, 0.0, 0.0, 0.0, 0.0, 0.0, 0.0, 0.0, 0.0, 1.7272856417029788E9, 0.0, 2024-09-25 12:34:01.702
84.0, 117038.58429653458, 187500.0, 148493.56841964347, 133650.6913483967, 58562.710411871725, 109903.30396930028, 115952.64714391794, 119973.88243363886, -0.23800000000000002, 0.8160000000000001, 0.52, 192.0, 0.0, 0.0, 0.0, 0.0, 0.0, 0.0, 0.0, 0.0, 0.0, 1.7272856417079673E9, 0.0, 2024-09-25 12:34:01.707
85.0, 117042.69701751437, 187500.0, 148453.11176217935, 133641.77300235906, 58541.3644959169, 109897.58192271972, 115955.2175945303, 119962.55009920003, -0.23800000000000002, 0.8160000000000001, 0.52, 192.0, 0.0, 0.0, 0.0, 0.0, 0.0, 0.0, 0.0, 0.0, 0.0, 1.7272856417119675E9, 0.0, 2024-09-25 12:34:01.711
86.0, 117061.383075879, 187500.0, 148486.5499718845, 133651.31719724147, 58569.68415614178, 109902.43225126652, 115957.9668590983, 119976.85521565142, -0.23800000000000002, 0.8160000000000001, 0.52, 192.0, 0.0, 0.0, 0.0, 0.0, 0.0, 0.0, 0.0, 0.0, 0.0, 1.7272856417159548E9, 0.0, 2024-09-25 12:34:01.715
87.0, 117064.69113405838, 187500.0, 148535.18736781925, 133664.57178170345, 58599.0319966116, 109912.17761184904, 115957.9668590983, 119987.02525937858, -0.23800000000000002, 0.8160000000000001, 0.52, 192.0, 0.0, 0.0, 0.0, 0.0, 0.0, 0.0, 0.0, 0.0, 0.0, 1.727285641718958E9, 0.0, 2024-09-25 12:34:01.718
88.0, 117054.8340147536, 187500.0, 148516.81423387697, 133664.84000263692, 58584.950397604756, 109911.70822521547, 115959.71029516582, 119981.39261977586, -0.23800000000000002, 0.8160000000000001, 0.52, 192.0, 0.0, 0.0, 0.0, 0.0, 0.0, 0.0, 0.0, 0.0, 0.0, 1.7272856417229245E9, 0.0, 2024-09-25 12:34:01.722
89.0, 117053.15763391944, 187500.0, 148471.4848961216, 133658.4921072116, 58559.35765020343, 109904.8909431566, 115964.0241818457, 119973.90478538333, -0.23800000000000002, 0.8160000000000001, 0.52, 192.0, 0.0, 0.0, 0.0, 0.0, 0.0, 0.0, 0.0, 0.0, 0.0, 1.727285641726972E9, 0.0, 2024-09-25 12:34:01.726
90.0, 117076.71637257533, 187500.0, 148484.38185267232, 133667.14223231582, 58577.75313589015, 109907.3943385356, 115973.41191451692, 119972.58603246046, -0.242, 0.81, 0.52, 192.0, 248.0, 112.0, 25.0, 80.0, 16.0, 64.0, 0.0, 0.0, 0.0, 1.7272856417309327E9, 0.0, 2024-09-25 12:34:01.730
91.0, 117088.07105875864, 187500.0, 148536.93080388676, 133679.34628478842, 58609.87259267242, 109916.33503631772, 115974.84242616207, 119987.22642507868, -0.242, 0.81, 0.52, 192.0, 0.0, 0.0, 0.0, 0.0, 0.0, 0.0, 0.0, 0.0, 0.0, 1.727285641735865E9, 0.0, 2024-09-25 12:34:01.735
92.0, 117075.5317301192, 187500.0, 148539.4118475213, 133684.82246217996, 58608.5314880051, 109926.28156260033, 115977.18935932987, 120004.48197179819, -0.242, 0.81, 0.52, 192.0, 0.0, 0.0, 0.0, 0.0, 0.0, 0.0, 0.0, 0.0, 0.0, 1.7272856417399533E9, 0.0, 2024-09-25 12:34:01.739
93.0, 117073.54242486268, 187500.0, 148495.8930010668, 133678.60867722137, 58581.19530453626, 109926.30391434478, 115982.6208332325, 120004.59373052046, -0.242, 0.81, 0.52, 192.0, 0.0, 0.0, 0.0, 0.0, 0.0, 0.0, 0.0, 0.0, 0.0, 1.727285641743926E9, 0.0, 2024-09-25 12:34:01.743
94.0, 117091.133247749, 187500.0, 148499.69279762422, 133683.05667436798, 58592.5276389751, 109925.02986491083, 115992.45560079285, 120005.48780029868, -0.242, 0.81, 0.52, 192.0, 0.0, 0.0, 0.0, 0.0, 0.0, 0.0, 0.0, 0.0, 0.0, 1.7272856417469E9, 0.0, 2024-09-25 12:34:01.746
95.0, 117102.42087869893, 187500.0, 148557.09207738546, 133693.31612507298, 58625.5858690245, 109931.4448155695, 115986.19711234535, 120024.68794878578, -0.242, 0.81, 0.52, 192.0, 0.0, 0.0, 0.0, 0.0, 0.0, 0.0, 0.0, 0.0, 0.0, 1.7272856417509077E9, 0.0, 2024-09-25 12:34:01.750
96.0, 117105.77364036723, 187500.0, 148566.99390017914, 133705.34136358995, 58629.43036907082, 109937.56919355025, 115995.11545838302, 120025.85023949746, -0.242, 0.81, 0.52, 192.0, 0.0, 0.0, 0.0, 0.0, 0.0, 0.0, 0.0, 0.0, 0.0, 1.7272856417789593E9, 0.0, 2024-09-25 12:34:01.778
97.0, 117101.97384380983, 187500.0, 148519.92112635626, 133699.41815130928, 58602.09418560198, 109934.21643188197, 115999.04936540716, 120014.80847773654, -0.242, 0.81, 0.52, 192.0, 0.0, 0.0, 0.0, 0.0, 0.0, 0.0, 0.0, 0.0, 0.0, 1.72728564178306E9, 0.0, 2024-09-25 12:34:01.783
98.0, 117116.72599515034, 187500.0, 148512.6568094083, 133701.0498286545, 58604.15054609186, 109937.0998069167, 116004.59259803208, 120012.2827306131, -0.242, 0.81, 0.52, 192.0, 0.0, 0.0, 0.0, 0.0, 0.0, 0.0, 0.0, 0.0, 0.0, 1.727285641786018E9, 0.0, 2024-09-25 12:34:01.786
99.0, 117132.95336162488, 187500.0, 148563.4176210663, 133716.27136662859, 58636.806444741065, 109945.21349015397, 116005.57607478811, 120019.65880628335, -0.242, 0.81, 0.52, 192.0, 0.0, 0.0, 0.0, 0.0, 0.0, 0.0, 0.0, 0.0, 0.0, 1.727285641790079E9, 0.0, 2024-09-25 12:34:01.790
100.0, 117128.393605756, 187500.0, 148584.51766783211, 133728.69893654573, 58651.31272689256, 109952.61191756868, 116013.28742662519, 120023.74917551866, -0.242, 0.81, 0.52, 192.0, 0.0, 0.0, 0.0, 0.0, 0.0, 0.0, 0.0, 0.0, 0.0, 1.7272856417930198E9, 0.0, 2024-09-25 12:34:01.793
101.0, 117114.51317244925, 187500.0, 148549.2019115927, 133719.7135352747, 58627.12813939192, 109956.59052808172, 116001.23983636378, 120035.03680646859, -0.244, 0.81, 0.516, 192.0, 248.0, 96.0, 25.0, 80.0, 16.0, 32.0, 0.0, 0.0, 0.0, 1.7272856417960484E9, 0.0, 2024-09-25 12:34:01.796
102.0, 117131.85812614657, 187500.0, 148520.21169903417, 133715.89138697283, 58611.705435717755, 109951.33786813472, 116011.65574927995, 120016.50721031515, -0.244, 0.81, 0.516, 192.0, 0.0, 0.0, 0.0, 0.0, 0.0, 0.0, 0.0, 0.0, 0.0, 1.727285641800043E9, 0.0, 2024-09-25 12:34:01.800
103.0, 117148.48782402133, 187500.0, 148574.05705142702, 133733.90689300382, 58652.117389692954, 109969.19691195452, 116024.0833191971, 120039.39539663738, -0.244, 0.81, 0.516, 192.0, 0.0, 0.0, 0.0, 0.0, 0.0, 0.0, 0.0, 0.0, 0.0, 1.727285641803054E9, 0.0, 2024-09-25 12:34:01.803
104.0, 117144.7997861862, 187500.0, 148610.0210082556, 133742.51231461912, 58671.29518643561, 109975.34364167973, 116024.26213315275, 120051.8900217879, -0.244, 0.81, 0.516, 192.0, 0.0, 0.0, 0.0, 0.0, 0.0, 0.0, 0.0, 0.0, 0.0, 1.727285641806103E9, 0.0, 2024-09-25 12:34:01.806
105.0, 117132.9980651138, 187500.0, 148579.7790980076, 133735.82914302696, 58652.89970074889, 109973.80137131231, 116023.01043546325, 120055.71217008976, -0.244, 0.81, 0.516, 192.0, 0.0, 0.0, 0.0, 0.0, 0.0, 0.0, 0.0, 0.0, 0.0, 1.7272856418091054E9, 0.0, 2024-09-25 12:34:01.809
106.0, 117147.19142284292, 187500.0, 148541.64702196684, 133734.97977673766, 58633.721904006234, 109966.13472296414, 116034.36512164655, 120038.21075418124, -0.244, 0.81, 0.516, 192.0, 0.0, 0.0, 0.0, 0.0, 0.0, 0.0, 0.0, 0.0, 0.0, 1.727285641812098E9, 0.0, 2024-09-25 12:34:01.812
107.0, 117164.5587282847, 187500.0, 148574.74995550513, 133745.52980012057, 58659.20289268529, 109969.21926369898, 116038.3884356485, 120037.27198091413, -0.244, 0.81, 0.516, 192.0, 0.0, 0.0, 0.0, 0.0, 0.0, 0.0, 0.0, 0.0, 0.0, 1.7272856418160448E9, 0.0, 2024-09-25 12:34:01.816
108.0, 117161.0048009163, 187500.0, 148622.5379851506, 133756.21393397023, 58688.193105243816, 109980.0598597598, 116031.8393745231, 120057.85793755746, -0.244, 0.81, 0.516, 192.0, 0.0, 0.0, 0.0, 0.0, 0.0, 0.0, 0.0, 0.0, 0.0, 1.7272856418190367E9, 0.0, 2024-09-25 12:34:01.819
109.0, 117154.07576013515, 187500.0, 148597.36992089392, 133756.92918979278, 58670.04348874611, 109980.17161848207, 116042.45645313937, 120057.07562650152, -0.244, 0.81, 0.516, 192.0, 0.0, 0.0, 0.0, 0.0, 0.0, 0.0, 0.0, 0.0, 0.0, 1.727285641822065E9, 0.0, 2024-09-25 12:34:01.822
110.0, 117166.30216435221, 187500.0, 148553.1581703613, 133754.87282930288, 58646.41769485685, 109974.96366202399, 116057.40977017996, 120037.67431231432, -0.244, 0.81, 0.516, 192.0, 0.0, 0.0, 0.0, 0.0, 0.0, 0.0, 0.0, 0.0, 0.0, 1.7272856418251472E9, 0.0, 2024-09-25 12:34:01.825
111.0, 117182.9095104825, 187500.0, 148576.40398459483, 133762.76299509563, 58667.0483549891, 109977.53411263635, 116059.75670334777, 120036.15439369135, -0.242, 0.812, 0.508, 192.0, 248.0, 112.0, 25.0, 96.0, 15.0, 224.0, 0.0, 0.0, 0.0, 1.727285641829116E9, 0.0, 2024-09-25 12:34:01.829
112.0, 117183.46830409388, 187500.0, 148634.69733413428, 133779.75032088166, 58704.57693392956, 109995.90724657862, 116062.41656093796, 120063.42352192683, -0.242, 0.812, 0.508, 192.0, 0.0, 0.0, 0.0, 0.0, 0.0, 0.0, 0.0, 0.0, 0.0, 1.72728564183214E9, 0.0, 2024-09-25 12:34:01.832
113.0, 117171.44306557692, 187500.0, 148626.31542996352, 133781.40434997136, 58696.306788481095, 110006.25610426143, 116062.08128477112, 120074.10765577646, -0.242, 0.812, 0.508, 192.0, 0.0, 0.0, 0.0, 0.0, 0.0, 0.0, 0.0, 0.0, 0.0, 1.7272856418350816E9, 0.0, 2024-09-25 12:34:01.835
114.0, 117178.93089996945, 187500.0, 148575.91224621682, 133774.14003302337, 58665.70725032178, 110000.95874082552, 116070.44083719741, 120054.70634158926, -0.242, 0.812, 0.508, 192.0, 0.0, 0.0, 0.0, 0.0, 0.0, 0.0, 0.0, 0.0, 0.0, 1.7272856418380835E9, 0.0, 2024-09-25 12:34:01.838
115.0, 117200.5673886022, 187500.0, 148596.49820286015, 133783.7736348836, 58688.34956745501, 110015.04033983235, 116084.79065713772, 120067.89387081789, -0.242, 0.812, 0.508, 192.0, 0.0, 0.0, 0.0, 0.0, 0.0, 0.0, 0.0, 0.0, 0.0, 1.727285641842164E9, 0.0, 2024-09-25 12:34:01.842
116.0, 117209.21751370639, 187500.0, 148654.36686925494, 133794.837748389, 58724.62644870597, 110025.65741844862, 116080.67793615794, 120087.78692338312, -0.242, 0.812, 0.508, 192.0, 0.0, 0.0, 0.0, 0.0, 0.0, 0.0, 0.0, 0.0, 0.0, 1.727285641845163E9, 0.0, 2024-09-25 12:34:01.845
117.0, 117201.6626240805, 187500.0, 148653.83042738802, 133795.7318181672, 58714.411701489895, 110025.56801147081, 116076.72167738936, 120085.10471404847, -0.242, 0.812, 0.508, 192.0, 0.0, 0.0, 0.0, 0.0, 0.0, 0.0, 0.0, 0.0, 0.0, 1.7272856418481605E9, 0.0, 2024-09-25 12:34:01.848
118.0, 117193.63834782105, 187500.0, 148607.7187785767, 133786.0311610736, 58687.790773843626, 110024.11514808121, 116080.58852918012, 120080.18733026831, -0.242, 0.812, 0.508, 192.0, 0.0, 0.0, 0.0, 0.0, 0.0, 0.0, 0.0, 0.0, 0.0, 1.727285641851174E9, 0.0, 2024-09-25 12:34:01.851
119.0, 117207.60818810562, 187500.0, 148605.5283076201, 133785.15944303983, 58695.256256491695, 110021.65645619112, 116084.90241586, 120082.6460221584, -0.242, 0.812, 0.508, 192.0, 0.0, 0.0, 0.0, 0.0, 0.0, 0.0, 0.0, 0.0, 0.0, 1.7272856418541737E9, 0.0, 2024-09-25 12:34:01.854
120.0, 117226.7189296149, 187500.0, 148655.8867878779, 133800.20216705825, 58732.13663484295, 110029.34545628376, 116096.63708169904, 120085.3952867264, -0.242, 0.812, 0.508, 192.0, 0.0, 0.0, 0.0, 0.0, 0.0, 0.0, 0.0, 0.0, 0.0, 1.7272856418581905E9, 0.0, 2024-09-25 12:34:01.858
121.0, 117215.74422308734, 187500.0, 148672.15885784136, 133809.2322718182, 58736.67403896738, 110040.56603200031, 116095.653604943, 120094.22422578624, -0.244, 0.81, 0.506, 192.0, 248.0, 96.0, 25.0, 80.0, 15.0, 208.0, 0.0, 0.0, 0.0, 1.727285641861116E9, 0.0, 2024-09-25 12:34:01.861
122.0, 117212.16794397449, 187500.0, 148633.26682248912, 133806.32654503902, 58711.46127122179, 110043.18118610159, 116101.53211373475, 120096.88408337643, -0.244, 0.81, 0.506, 192.0, 0.0, 0.0, 0.0, 0.0, 0.0, 0.0, 0.0, 0.0, 0.0, 1.7272856418641045E9, 0.0, 2024-09-25 12:34:01.864
123.0, 117230.9210575725, 187500.0, 148618.7828920821, 133808.11468459544, 58711.550678199616, 110043.51646226841, 116112.59622724012, 120099.23101654423, -0.244, 0.81, 0.506, 192.0, 0.0, 0.0, 0.0, 0.0, 0.0, 0.0, 0.0, 0.0, 0.0, 1.7272856418671153E9, 0.0, 2024-09-25 12:34:01.867
124.0, 117254.90447937304, 187500.0, 148663.48638099272, 133820.09521962347, 58741.68082972537, 110048.09856988175, 116114.87610517457, 120103.36608926847, -0.244, 0.81, 0.506, 192.0, 0.0, 0.0, 0.0, 0.0, 0.0, 0.0, 0.0, 0.0, 0.0, 1.7272856418711953E9, 0.0, 2024-09-25 12:34:01.871
125.0, 117243.97447633439, 187500.0, 148692.92362844036, 133825.95137667077, 58756.075353154585, 110058.3803723312, 116106.42714577046, 120125.51666802367, -0.244, 0.81, 0.506, 192.0, 0.0, 0.0, 0.0, 0.0, 0.0, 0.0, 0.0, 0.0, 0.0, 1.7272856418742044E9, 0.0, 2024-09-25 12:34:01.874
126.0, 117232.10570002862, 187500.0, 148654.29981402156, 133818.41883878934, 58730.90728889791, 110056.01108741893, 116113.89262841853, 120127.43891804683, -0.244, 0.81, 0.506, 192.0, 0.0, 0.0, 0.0, 0.0, 0.0, 0.0, 0.0, 0.0, 0.0, 1.7272856418772085E9, 0.0, 2024-09-25 12:34:01.877
127.0, 117236.8219181087, 187500.0, 148627.321258464, 133815.89309166587, 58722.23481204925, 110056.16754963012, 116116.61954124208, 120127.01423490218, -0.244, 0.81, 0.506, 192.0, 0.0, 0.0, 0.0, 0.0, 0.0, 0.0, 0.0, 0.0, 0.0, 1.727285641881233E9, 0.0, 2024-09-25 12:34:01.881
128.0, 117257.76550266333, 187500.0, 148666.79443917208, 133829.17002787234, 58751.98498391927, 110061.75548574394, 116126.67782624696, 120127.19304885782, -0.244, 0.81, 0.506, 192.0, 0.0, 0.0, 0.0, 0.0, 0.0, 0.0, 0.0, 0.0, 0.0, 1.727285641884212E9, 0.0, 2024-09-25 12:34:01.884
129.0, 117262.83934865468, 187500.0, 148706.28997162462, 133844.50332456868, 58774.895521985956, 110075.14418067268, 116137.38431184106, 120134.23384836124, -0.244, 0.81, 0.506, 192.0, 0.0, 0.0, 0.0, 0.0, 0.0, 0.0, 0.0, 0.0, 0.0, 1.72728564188719E9, 0.0, 2024-09-25 12:34:01.887
130.0, 117251.08233107119, 187500.0, 148673.9917008867, 133839.31771985505, 58755.04717290964, 110077.08878244029, 116135.35030309562, 120135.79847047312, -0.244, 0.81, 0.506, 192.0, 0.0, 0.0, 0.0, 0.0, 0.0, 0.0, 0.0, 0.0, 0.0, 1.7272856418911877E9, 0.0, 2024-09-25 12:34:01.891
131.0, 117249.2718397703, 187500.0, 148635.4349417013, 133829.05826915006, 58736.115245356, 110072.86430273823, 116132.89161120554, 120131.73045298224, -0.242, 0.8140000000000001, 0.51, 192.0, 248.0, 112.0, 25.0, 112.0, 15.0, 240.0, 0.0, 0.0, 0.0, 1.7272856418952491E9, 0.0, 2024-09-25 12:34:01.895
132.0, 117270.43894176948, 187500.0, 148672.20356133027, 133839.36242334396, 58759.919853200896, 110077.93814872959, 116134.43388157296, 120143.42041533238, -0.242, 0.8140000000000001, 0.51, 192.0, 0.0, 0.0, 0.0, 0.0, 0.0, 0.0, 0.0, 0.0, 0.0, 1.7272856418992436E9, 0.0, 2024-09-25 12:34:01.899
133.0, 117279.96078490744, 187500.0, 148719.32103864205, 133853.42167060633, 58784.73028954629, 110084.0848784548, 116139.73124500886, 120153.612810804, -0.242, 0.8140000000000001, 0.51, 192.0, 0.0, 0.0, 0.0, 0.0, 0.0, 0.0, 0.0, 0.0, 0.0, 1.7272856419032693E9, 0.0, 2024-09-25 12:34:01.903
134.0, 117274.03757262678, 187500.0, 148695.78465173062, 133855.6344933074, 58770.06754518361, 110084.24134066599, 116148.69429453544, 120143.62158103248, -0.242, 0.8140000000000001, 0.51, 192.0, 0.0, 0.0, 0.0, 0.0, 0.0, 0.0, 0.0, 0.0, 0.0, 1.7272856419072523E9, 0.0, 2024-09-25 12:34:01.907
135.0, 117268.80726442425, 187500.0, 148659.17249431284, 133850.20301940478, 58751.33678333006, 110086.40945987815, 116148.58253581317, 120147.86841247899, -0.242, 0.8140000000000001, 0.51, 192.0, 0.0, 0.0, 0.0, 0.0, 0.0, 0.0, 0.0, 0.0, 0.0, 1.7272856419102423E9, 0.0, 2024-09-25 12:34:01.910
136.0, 117289.84025595669, 187500.0, 148676.96448289926, 133853.3993188619, 58767.76531550471, 110083.2355121655, 116155.28805914975, 120151.39998810292, -0.242, 0.8140000000000001, 0.51, 192.0, 0.0, 0.0, 0.0, 0.0, 0.0, 0.0, 0.0, 0.0, 0.0, 1.727285641914214E9, 0.0, 2024-09-25 12:34:01.914
137.0, 117300.36792759514, 187500.0, 148730.98864924774, 133871.57128710405, 58803.55045837766, 110095.12664021572, 116164.34051565416, 120169.08021796707, -0.242, 0.8140000000000001, 0.51, 192.0, 0.0, 0.0, 0.0, 0.0, 0.0, 0.0, 0.0, 0.0, 0.0, 1.7272856419192567E9, 0.0, 2024-09-25 12:34:01.919
138.0, 117285.32520357672, 187500.0, 148719.47750085325, 133867.9056010134, 58789.46885937081, 110093.42790763712, 116160.7642365413, 120171.91888951289, -0.242, 0.8140000000000001, 0.51, 192.0, 0.0, 0.0, 0.0, 0.0, 0.0, 0.0, 0.0, 0.0, 0.0, 1.727285641923232E9, 0.0, 2024-09-25 12:34:01.923
139.0, 117283.06767738673, 187500.0, 148673.85759041997, 133862.6082375775, 58762.31148985762, 110091.52800935842, 116162.70883830891, 120162.39704637493, -0.242, 0.8140000000000001, 0.51, 192.0, 0.0, 0.0, 0.0, 0.0, 0.0, 0.0, 0.0, 0.0, 0.0, 1.7272856419272945E9, 0.0, 2024-09-25 12:34:01.927
140.0, 117294.77999148131, 187500.0, 148680.40665154537, 133864.61989457844, 58774.09085918556, 110094.50079137097, 116170.55430061273, 120167.89557551093, -0.242, 0.8140000000000001, 0.51, 192.0, 0.0, 0.0, 0.0, 0.0, 0.0, 0.0, 0.0, 0.0, 0.0, 1.727285641931311E9, 0.0, 2024-09-25 12:34:01.931
141.0, 117313.66721554604, 187500.0, 148732.79914054862, 133882.59069712053, 58808.28902820218, 110102.88269554172, 116175.672850093, 120169.862529023, -0.242, 0.8140000000000001, 0.51, 192.0, 0.0, 0.0, 0.0, 0.0, 0.0, 0.0, 0.0, 0.0, 0.0, 1.7272856419342563E9, 0.0, 2024-09-25 12:34:01.934
142.0, 117303.65363403007, 187500.0, 148743.41621916488, 133888.53626114564, 58813.8322608271, 110113.1421462467, 116179.24912920584, 120182.0218780067, -0.24, 0.8200000000000001, 0.514, 192.0, 248.0, 128.0, 25.0, 160.0, 16.0, 16.0, 0.0, 0.0, 0.0, 1.727285641938249E9, 0.0, 2024-09-25 12:34:01.938
143.0, 117297.81982872724, 187500.0, 148697.3045703536, 133880.04259825262, 58786.78665003618, 110109.96819853404, 116181.55135888474, 120173.79643604714, -0.24, 0.8200000000000001, 0.514, 192.0, 0.0, 0.0, 0.0, 0.0, 0.0, 0.0, 0.0, 0.0, 0.0, 1.727285641942269E9, 0.0, 2024-09-25 12:34:01.942
144.0, 117305.6429392866, 187500.0, 148692.02955866212, 133878.52267962965, 58788.21716168132, 110109.63292236721, 116182.04309726277, 120179.42907564988, -0.24, 0.8200000000000001, 0.514, 192.0, 0.0, 0.0, 0.0, 0.0, 0.0, 0.0, 0.0, 0.0, 0.0, 1.7272856419473207E9, 0.0, 2024-09-25 12:34:01.947
145.0, 117322.22793367243, 187500.0, 148747.57364363357, 133894.57123214856, 58829.478481945815, 110119.06535852735, 116198.49398118186, 120195.79055259116, -0.24, 0.8200000000000001, 0.514, 192.0, 0.0, 0.0, 0.0, 0.0, 0.0, 0.0, 0.0, 0.0, 0.0, 1.7272856419513245E9, 0.0, 2024-09-25 12:34:01.951
146.0, 117321.26680866085, 187500.0, 148770.14890553342, 133910.5527294341, 58840.49789196228, 110132.20818426707, 116205.06539405172, 120209.38041321999, -0.24, 0.8200000000000001, 0.514, 192.0, 0.0, 0.0, 0.0, 0.0, 0.0, 0.0, 0.0, 0.0, 0.0, 1.7272856419553502E9, 0.0, 2024-09-25 12:34:01.955
147.0, 117310.82854400022, 187500.0, 148729.46873062477, 133905.5012351872, 58811.68649335939, 110131.82820461133, 116199.34334747116, 120212.71082314383, -0.24, 0.8200000000000001, 0.514, 192.0, 0.0, 0.0, 0.0, 0.0, 0.0, 0.0, 0.0, 0.0, 0.0, 1.7272856419592683E9, 0.0, 2024-09-25 12:34:01.959
148.0, 117321.91500925005, 187500.0, 148708.63690479242, 133899.64507813993, 58802.72344383281, 110128.05075979838, 116193.7777631018, 120215.03540456718, -0.24, 0.8200000000000001, 0.514, 192.0, 0.0, 0.0, 0.0, 0.0, 0.0, 0.0, 0.0, 0.0, 0.0, 1.72728564196238E9, 0.0, 2024-09-25 12:34:01.962
149.0, 117346.70309385099, 187500.0, 148750.99346053525, 133910.66448815638, 58832.384208725, 110128.56484992086, 116206.65236790806, 120211.45912545433, -0.24, 0.8200000000000001, 0.514, 192.0, 0.0, 0.0, 0.0, 0.0, 0.0, 0.0, 0.0, 0.0, 0.0, 1.7272856419683237E9, 0.0, 2024-09-25 12:34:01.968
150.0, 117344.95965778347, 187500.0, 148787.6726731864, 133925.39428775242, 58856.3452787811, 110143.78638789493, 116218.69995816947, 120223.23849478227, -0.24, 0.8200000000000001, 0.514, 192.0, 0.0, 0.0, 0.0, 0.0, 0.0, 0.0, 0.0, 0.0, 0.0, 1.727285641971383E9, 0.0, 2024-09-25 12:34:01.971
151.0, 117323.70314880648, 187500.0, 148759.1071437725, 133917.77234289318, 58839.17913903942, 110146.26743152946, 116213.51435345583, 120236.47072749982, -0.24, 0.8200000000000001, 0.514, 192.0, 0.0, 0.0, 0.0, 0.0, 0.0, 0.0, 0.0, 0.0, 0.0, 1.7272856419743009E9, 0.0, 2024-09-25 12:34:01.974
152.0, 117332.0403494883, 187500.0, 148725.5571753451, 133911.62561316797, 58823.15293826496, 110138.33256224783, 116212.48617321088, 120227.35121576206, -0.242, 0.8140000000000001, 0.514, 192.0, 248.0, 112.0, 25.0, 112.0, 16.0, 16.0, 0.0, 0.0, 0.0, 1.7272856419793682E9, 0.0, 2024-09-25 12:34:01.979
153.0, 117355.01794278837, 187500.0, 148756.53669316016, 133918.82287488258, 58841.369609996036, 110134.21984126804, 116214.47547846742, 120217.18117203489, -0.242, 0.8140000000000001, 0.514, 192.0, 0.0, 0.0, 0.0, 0.0, 0.0, 0.0, 0.0, 0.0, 0.0, 1.7272856419843757E9, 0.0, 2024-09-25 12:34:01.984
154.0, 117348.91591655207, 187500.0, 148806.20226933985, 133932.1221628335, 58874.53959876771, 110149.93311762014, 116225.7854611618, 120235.86723039953, -0.242, 0.8140000000000001, 0.514, 192.0, 0.0, 0.0, 0.0, 0.0, 0.0, 0.0, 0.0, 0.0, 0.0, 1.7272856419883993E9, 0.0, 2024-09-25 12:34:01.988
155.0, 117343.10446299368, 187500.0, 148781.86121962802, 133934.29028204564, 58858.40163927098, 110154.001135111, 116232.96037113195, 120241.00813162424, -0.242, 0.8140000000000001, 0.514, 192.0, 0.0, 0.0, 0.0, 0.0, 0.0, 0.0, 0.0, 0.0, 0.0, 1.7272856419913485E9, 0.0, 2024-09-25 12:34:01.991
156.0, 117359.22007074596, 187500.0, 148743.37151567597, 133937.8665611585, 58840.810816384655, 110153.71056243307, 116246.08084512722, 120232.13448907548, -0.242, 0.8140000000000001, 0.514, 192.0, 0.0, 0.0, 0.0, 0.0, 0.0, 0.0, 0.0, 0.0, 0.0, 1.7272856419943526E9, 0.0, 2024-09-25 12:34:01.994
157.0, 117378.35316399971, 187500.0, 148776.83207712558, 133948.43893628585, 58866.98470914182, 110164.08177186034, 116245.67851372702, 120244.5844107371, -0.242, 0.8140000000000001, 0.514, 192.0, 0.0, 0.0, 0.0, 0.0, 0.0, 0.0, 0.0, 0.0, 0.0, 1.7272856419984016E9, 0.0, 2024-09-25 12:34:01.998
