%OpenBCI Raw EXG Data
%Number of channels = 8
%Sample Rate = 250 Hz
%Board = OpenBCI_GUI$BoardCytonSerial
Sample Index, EXG Channel 0, EXG Channel 1, EXG Channel 2, EXG Channel 3, EXG Channel 4, EXG Channel 5, EXG Channel 6, EXG Channel 7, Accel Channel 0, Accel Channel 1, Accel Channel 2, Not Used, Digital Channel 0 (D11), Digital Channel 1 (D12), Digital Channel 2 (D13), Digital Channel 3 (D17), Not Used, Digital Channel 4 (D18), Analog Channel 0, Analog Channel 1, Analog Channel 2, Timestamp, Marker Channel, Timestamp (Formatted)
92.0, 135129.05807841517, 187500.0, 155108.34367374703, 141046.2353880686, 66444.04726553528, 117302.31252936275, 124583.41563742347, 128358.33470324693, 0.0, 0.0, 0.0, 192.0, 0.0, 0.0, 0.0, 0.0, 0.0, 0.0, 0.0, 0.0, 0.0, 1.727285952279914E9, 0.0, 2024-09-25 12:39:12.279
93.0, 135148.07941294665, 187500.0, 155145.24640384276, 141056.36072830687, 66475.1385420726, 117308.86159048816, 124588.60124213711, 128364.3473225054, 0.0, 0.0, 0.0, 192.0, 0.0, 0.0, 0.0, 0.0, 0.0, 0.0, 0.0, 0.0, 0.0, 1.7272859522800107E9, 0.0, 2024-09-25 12:39:12.280
94.0, 135139.18341865344, 187500.0, 155203.36093942655, 141066.4413650562, 66510.18607737853, 117321.37856738313, 124582.38745717854, 128393.98573565314, 0.0, 0.0, 0.0, 192.0, 0.0, 0.0, 0.0, 0.0, 0.0, 0.0, 0.0, 0.0, 0.0, 1.7272859522800736E9, 0.0, 2024-09-25 12:39:12.280
0.0, 0.0, 0.0, 0.0, 0.0, 0.0, 0.0, 0.0, 0.0, 0.0, 0.0, 0.0, 192.0, 0.0, 0.0, 0.0, 0.0, 0.0, 0.0, 0.0, 0.0, 0.0, 1.727285952373753E9, 0.0, 2024-09-25 12:39:12.373
1.0, 135175.88498304904, 187500.0, 155135.03165662667, 141046.6377194688, 66493.51167601487, 117345.60785837268, 124571.0551227397, 128378.42892151224, -0.264, 0.792, 0.522, 192.0, 247.0, 192.0, 24.0, 192.0, 16.0, 80.0, 0.0, 0.0, 0.0, 1.7272859523826754E9, 0.0, 2024-09-25 12:39:12.382
2.0, 135196.73916062585, 187500.0, 155149.73910447827, 141047.86706541386, 66511.30366460129, 117338.58941061371, 124576.3524861756, 128359.98873233661, -0.264, 0.792, 0.522, 192.0, 0.0, 0.0, 0.0, 0.0, 0.0, 0.0, 0.0, 0.0, 0.0, 1.7272859523867116E9, 0.0, 2024-09-25 12:39:12.386
3.0, 135198.39318971554, 187500.0, 155206.51253539475, 141059.02058589706, 66545.16655745108, 117347.03837001782, 124575.97250651986, 128369.86820338586, -0.264, 0.792, 0.522, 192.0, 0.0, 0.0, 0.0, 0.0, 0.0, 0.0, 0.0, 0.0, 0.0, 1.727285952391729E9, 0.0, 2024-09-25 12:39:12.391
4.0, 135190.99476230083, 187500.0, 155193.41441314394, 141066.17314412276, 66534.41536836808, 117359.57769865725, 124586.34371594712, 128376.10434008889, -0.264, 0.792, 0.522, 192.0, 0.0, 0.0, 0.0, 0.0, 0.0, 0.0, 0.0, 0.0, 0.0, 1.7272859523947632E9, 0.0, 2024-09-25 12:39:12.394
5.0, 135186.68087562095, 187500.0, 155147.123950377, 141060.31698707546, 66509.71669074496, 117364.4503789485, 124591.61872763858, 128378.98771512363, -0.264, 0.792, 0.522, 192.0, 0.0, 0.0, 0.0, 0.0, 0.0, 0.0, 0.0, 0.0, 0.0, 1.7272859523987691E9, 0.0, 2024-09-25 12:39:12.398
6.0, 135209.18908228746, 187500.0, 155158.85861621602, 141064.1838388662, 66520.64669378361, 117362.03639054734, 124592.5575009057, 128374.36090402138, -0.264, 0.792, 0.522, 192.0, 0.0, 0.0, 0.0, 0.0, 0.0, 0.0, 0.0, 0.0, 0.0, 1.7272859524027665E9, 0.0, 2024-09-25 12:39:12.402
7.0, 135224.09769583913, 187500.0, 155219.09656752308, 141082.48991757512, 66559.22580471347, 117367.95960282799, 124590.38938169353, 128381.24524131362, -0.264, 0.792, 0.522, 192.0, 0.0, 0.0, 0.0, 0.0, 0.0, 0.0, 0.0, 0.0, 0.0, 1.7272859524067688E9, 0.0, 2024-09-25 12:39:12.406
8.0, 135221.43783824897, 187500.0, 155223.56691641413, 141097.68910380473, 66556.45418840101, 117384.47754198046, 124597.22901549687, 128395.48330253165, -0.266, 0.794, 0.53, 192.0, 247.0, 176.0, 24.0, 208.0, 16.0, 144.0, 0.0, 0.0, 0.0, 1.7272859524108253E9, 0.0, 2024-09-25 12:39:12.410
9.0, 135219.4038295035, 187500.0, 155171.01796519972, 141093.68814154723, 66524.06651068527, 117381.57181520127, 124601.76641962129, 128387.9507646502, -0.266, 0.794, 0.53, 192.0, 0.0, 0.0, 0.0, 0.0, 0.0, 0.0, 0.0, 0.0, 0.0, 1.7272859524147837E9, 0.0, 2024-09-25 12:39:12.414
10.0, 135234.96064364442, 187500.0, 155158.79156098267, 141086.53558332153, 66519.3502926052, 117369.23365226194, 124599.91122483149, 128371.27636328655, -0.266, 0.794, 0.53, 192.0, 0.0, 0.0, 0.0, 0.0, 0.0, 0.0, 0.0, 0.0, 0.0, 1.727285952417827E9, 0.0, 2024-09-25 12:39:12.417
11.0, 135238.80514369073, 187500.0, 155215.85556457707, 141088.8601647449, 66558.5105488909, 117369.07719005075, 124592.02105903877, 128380.21706106867, -0.266, 0.794, 0.53, 192.0, 0.0, 0.0, 0.0, 0.0, 0.0, 0.0, 0.0, 0.0, 0.0, 1.727285952422845E9, 0.0, 2024-09-25 12:39:12.422
12.0, 135217.906262625, 187500.0, 155229.0877972946, 141085.73092052113, 66560.1645779806, 117368.96543132847, 124582.655678112, 128387.7048954612, -0.266, 0.794, 0.53, 192.0, 0.0, 0.0, 0.0, 0.0, 0.0, 0.0, 0.0, 0.0, 0.0, 1.7272859524268022E9, 0.0, 2024-09-25 12:39:12.426
13.0, 135189.74306461134, 187500.0, 155172.94021522286, 141064.8543911999, 66520.37847285015, 117353.65448637659, 124572.28446868474, 128377.02076161157, -0.266, 0.794, 0.53, 192.0, 0.0, 0.0, 0.0, 0.0, 0.0, 0.0, 0.0, 0.0, 0.0, 1.7272859524307992E9, 0.0, 2024-09-25 12:39:12.430
14.0, 135188.5584221552, 187500.0, 155149.73910447827, 141051.51039976007, 66506.6992052435, 117341.2492682039, 124566.11538721508, 128366.42603473975, -0.266, 0.794, 0.53, 192.0, 0.0, 0.0, 0.0, 0.0, 0.0, 0.0, 0.0, 0.0, 0.0, 1.727285952434882E9, 0.0, 2024-09-25 12:39:12.434
15.0, 135202.99764907334, 187500.0, 155197.10245097906, 141059.26645508606, 66543.46782487248, 117341.60689611518, 124571.9491925179, 128364.97317135015, -0.266, 0.794, 0.53, 192.0, 0.0, 0.0, 0.0, 0.0, 0.0, 0.0, 0.0, 0.0, 0.0, 1.7272859524378824E9, 0.0, 2024-09-25 12:39:12.437
16.0, 135201.50008219483, 187500.0, 155226.20442225988, 141071.2022866252, 66559.20345296901, 117353.45332067649, 124576.5536518757, 128376.551374978, -0.266, 0.794, 0.53, 192.0, 0.0, 0.0, 0.0, 0.0, 0.0, 0.0, 0.0, 0.0, 0.0, 1.7272859524418025E9, 0.0, 2024-09-25 12:39:12.441
17.0, 135195.62157340307, 187500.0, 155180.56216008213, 141068.8553534574, 66528.6039148097, 117353.20745148748, 124584.48852115734, 128369.24235454111, -0.266, 0.794, 0.53, 192.0, 0.0, 0.0, 0.0, 0.0, 0.0, 0.0, 0.0, 0.0, 0.0, 1.727285952445878E9, 0.0, 2024-09-25 12:39:12.445
18.0, 135201.67889615046, 187500.0, 155143.3241538196, 141062.01571965407, 66510.67781575654, 117347.7983293293, 124589.27179447077, 128358.98290383613, -0.268, 0.798, 0.522, 192.0, 247.0, 160.0, 24.0, 240.0, 16.0, 80.0, 0.0, 0.0, 0.0, 1.7272859524498427E9, 0.0, 2024-09-25 12:39:12.449
19.0, 135221.59430046016, 187500.0, 155190.46398287584, 141071.22463836963, 66546.23944118494, 117353.27450672085, 124593.83155033966, 128362.51447946006, -0.268, 0.798, 0.522, 192.0, 0.0, 0.0, 0.0, 0.0, 0.0, 0.0, 0.0, 0.0, 0.0, 1.7272859524548476E9, 0.0, 2024-09-25 12:39:12.454
20.0, 135217.79450390275, 187500.0, 155234.85454736408, 141083.31693211995, 66572.45803743102, 117368.0490098058, 124595.19500675143, 128382.78751168103, -0.268, 0.798, 0.522, 192.0, 0.0, 0.0, 0.0, 0.0, 0.0, 0.0, 0.0, 0.0, 0.0, 1.7272859524588292E9, 0.0, 2024-09-25 12:39:12.458
21.0, 135195.46511119188, 187500.0, 155189.97224449783, 141070.28586510252, 66535.86823175767, 117364.33862022623, 124583.9073758015, 128381.49111050263, -0.268, 0.798, 0.522, 192.0, 0.0, 0.0, 0.0, 0.0, 0.0, 0.0, 0.0, 0.0, 0.0, 1.7272859524629E9, 0.0, 2024-09-25 12:39:12.462
22.0, 135194.83926234714, 187500.0, 155141.33484856307, 141056.3383765624, 66505.11223138717, 117353.00628578739, 124580.19698622191, 128366.35897950637, -0.268, 0.798, 0.522, 192.0, 0.0, 0.0, 0.0, 0.0, 0.0, 0.0, 0.0, 0.0, 0.0, 1.7272859524668505E9, 0.0, 2024-09-25 12:39:12.466
23.0, 135207.49034970885, 187500.0, 155170.41446809942, 141056.1372108623, 66527.53103107585, 117345.96548628397, 124576.57600362015, 128361.5533544485, -0.268, 0.798, 0.522, 192.0, 0.0, 0.0, 0.0, 0.0, 0.0, 0.0, 0.0, 0.0, 0.0, 1.727285952470882E9, 0.0, 2024-09-25 12:39:12.470
24.0, 135212.09480906665, 187500.0, 155220.90705882397, 141069.45885055768, 66557.79529306832, 117356.76137885588, 124579.16880597697, 128368.84002314092, -0.268, 0.798, 0.522, 192.0, 0.0, 0.0, 0.0, 0.0, 0.0, 0.0, 0.0, 0.0, 0.0, 1.7272859524739037E9, 0.0, 2024-09-25 12:39:12.473
25.0, 135197.34265772614, 187500.0, 155203.31623593764, 141070.82230696946, 66542.77492079436, 117370.08301855125, 124580.5546141332, 128384.93327914874, -0.268, 0.798, 0.522, 192.0, 0.0, 0.0, 0.0, 0.0, 0.0, 0.0, 0.0, 0.0, 0.0, 1.7272859524799225E9, 0.0, 2024-09-25 12:39:12.479
26.0, 135198.43789320445, 187500.0, 155149.89556668946, 141058.90882717478, 66510.4990018009, 117363.10927428119, 124583.72856184586, 128373.6009447099, -0.268, 0.798, 0.522, 192.0, 0.0, 0.0, 0.0, 0.0, 0.0, 0.0, 0.0, 0.0, 0.0, 1.7272859524839036E9, 0.0, 2024-09-25 12:39:12.483
27.0, 135218.8673876366, 187500.0, 155161.69728776184, 141062.0827748874, 66526.39109210862, 117358.3483527122, 124590.81406483818, 128364.57083994996, -0.268, 0.798, 0.522, 192.0, 0.0, 0.0, 0.0, 0.0, 0.0, 0.0, 0.0, 0.0, 0.0, 1.7272859524869394E9, 0.0, 2024-09-25 12:39:12.486
28.0, 135213.9053003675, 187500.0, 155215.7885093437, 141067.8942284458, 66562.82443557077, 117363.71277138148, 124582.90154730101, 128379.90413664629, -0.268, 0.798, 0.522, 192.0, 0.0, 0.0, 0.0, 0.0, 0.0, 0.0, 0.0, 0.0, 0.0, 1.7272859524910698E9, 0.0, 2024-09-25 12:39:12.491
29.0, 135197.23089900386, 187500.0, 155202.5786283706, 141067.46954530117, 66549.2569266864, 117366.64084990512, 124578.07357049866, 128384.86622391538, -0.27, 0.796, 0.528, 192.0, 247.0, 144.0, 24.0, 224.0, 16.0, 128.0, 0.0, 0.0, 0.0, 1.727285952493896E9, 0.0, 2024-09-25 12:39:12.493
30.0, 135198.97433507137, 187500.0, 155148.9120899334, 141061.9933679096, 66516.13164140364, 117361.7458178694, 124584.22030022387, 128373.24331679862, -0.27, 0.796, 0.528, 192.0, 0.0, 0.0, 0.0, 0.0, 0.0, 0.0, 0.0, 0.0, 0.0, 1.7272859524979577E9, 0.0, 2024-09-25 12:39:12.497
31.0, 135208.09384680915, 187500.0, 155153.4271423134, 141055.6901759732, 66526.36874036417, 117353.63213463213, 124583.59445137912, 128367.9012498738, -0.27, 0.796, 0.528, 192.0, 0.0, 0.0, 0.0, 0.0, 0.0, 0.0, 0.0, 0.0, 0.0, 1.7272859525020146E9, 0.0, 2024-09-25 12:39:12.502
32.0, 135213.74883815635, 187500.0, 155213.26276222026, 141062.7533272211, 66563.18206348206, 117354.77207359935, 124579.41467516599, 128375.90317438879, -0.27, 0.796, 0.528, 192.0, 0.0, 0.0, 0.0, 0.0, 0.0, 0.0, 0.0, 0.0, 0.0, 1.7272859525059803E9, 0.0, 2024-09-25 12:39:12.505
33.0, 135200.13662578305, 187500.0, 155213.5756866426, 141065.12261213336, 66557.03533375685, 117359.33182946824, 124576.33013443115, 128379.39004652383, -0.27, 0.796, 0.528, 192.0, 0.0, 0.0, 0.0, 0.0, 0.0, 0.0, 0.0, 0.0, 0.0, 1.7272859525100498E9, 0.0, 2024-09-25 12:39:12.510
34.0, 135189.51954716677, 187500.0, 155156.39992432593, 141053.45500152768, 66522.27837112885, 117353.36391369867, 124577.38066642055, 128367.76713940706, -0.27, 0.796, 0.528, 192.0, 0.0, 0.0, 0.0, 0.0, 0.0, 0.0, 0.0, 0.0, 0.0, 1.7272859525150592E9, 0.0, 2024-09-25 12:39:12.515
35.0, 135202.41650371748, 187500.0, 155145.38051430948, 141050.25870207057, 66522.47953682895, 117348.75945434088, 124580.80048332221, 128362.69329341571, -0.27, 0.796, 0.528, 192.0, 0.0, 0.0, 0.0, 0.0, 0.0, 0.0, 0.0, 0.0, 0.0, 1.7272859525190516E9, 0.0, 2024-09-25 12:39:12.519
36.0, 135208.85380612063, 187500.0, 155203.71856733784, 141057.1877428517, 66561.10335124772, 117350.52524215284, 124575.48076814185, 128376.08198834443, -0.27, 0.796, 0.528, 192.0, 0.0, 0.0, 0.0, 0.0, 0.0, 0.0, 0.0, 0.0, 0.0, 1.7272859525220575E9, 0.0, 2024-09-25 12:39:12.522
37.0, 135200.1589775275, 187500.0, 155212.90513430897, 141064.2955975885, 66559.06934250228, 117353.47567242094, 124575.2572506973, 128374.91969763277, -0.27, 0.796, 0.528, 192.0, 0.0, 0.0, 0.0, 0.0, 0.0, 0.0, 0.0, 0.0, 0.0, 1.727285952526026E9, 0.0, 2024-09-25 12:39:12.526
38.0, 135191.35239021212, 187500.0, 155160.870273217, 141058.70766147468, 66523.17244090706, 117352.20162298699, 124577.403018165, 128367.76713940706, -0.27, 0.796, 0.528, 192.0, 0.0, 0.0, 0.0, 0.0, 0.0, 0.0, 0.0, 0.0, 0.0, 1.7272859525320399E9, 0.0, 2024-09-25 12:39:12.532
39.0, 135202.8635386066, 187500.0, 155140.28431657367, 141056.96422540717, 66514.72348150295, 117348.71475085197, 124580.42050366646, 128364.59319169441, -0.268, 0.788, 0.524, 192.0, 247.0, 160.0, 24.0, 160.0, 16.0, 96.0, 0.0, 0.0, 0.0, 1.7272859525380545E9, 0.0, 2024-09-25 12:39:12.538
40.0, 135221.19196905996, 187500.0, 155198.28709343518, 141064.31794933297, 66554.37547616666, 117352.11221600918, 124579.63819261054, 128380.46293025768, -0.268, 0.788, 0.524, 192.0, 0.0, 0.0, 0.0, 0.0, 0.0, 0.0, 0.0, 0.0, 0.0, 1.727285952541056E9, 0.0, 2024-09-25 12:39:12.541
41.0, 135225.50585573982, 187500.0, 155227.47847169382, 141072.67750175923, 66569.08292401826, 117358.1471870121, 124585.7625705913, 128387.056694872, -0.268, 0.788, 0.524, 192.0, 0.0, 0.0, 0.0, 0.0, 0.0, 0.0, 0.0, 0.0, 0.0, 1.7272859525451105E9, 0.0, 2024-09-25 12:39:12.545
42.0, 135201.74595138384, 187500.0, 155184.94310199536, 141068.83300171292, 66536.4046736246, 117362.05874229179, 124586.6119368806, 128390.52121526256, -0.268, 0.788, 0.524, 192.0, 0.0, 0.0, 0.0, 0.0, 0.0, 0.0, 0.0, 0.0, 0.0, 1.727285952548018E9, 0.0, 2024-09-25 12:39:12.548
43.0, 135195.73333212535, 187500.0, 155150.85669170102, 141064.40735631078, 66518.18800189352, 117360.60587890219, 124586.27666071376, 128388.28604081704, -0.268, 0.788, 0.524, 192.0, 0.0, 0.0, 0.0, 0.0, 0.0, 0.0, 0.0, 0.0, 0.0, 1.7272859525510721E9, 0.0, 2024-09-25 12:39:12.551
44.0, 135212.27362302228, 187500.0, 155185.65835781794, 141067.38013832332, 66545.07715047325, 117357.67780037854, 124587.55071014771, 128382.49693900312, -0.268, 0.788, 0.524, 192.0, 0.0, 0.0, 0.0, 0.0, 0.0, 0.0, 0.0, 0.0, 0.0, 1.7272859525550704E9, 0.0, 2024-09-25 12:39:12.555
45.0, 135215.13464631257, 187500.0, 155230.138329284, 141081.6629030303, 66573.75443860942, 117372.38524823014, 124591.37285844957, 128393.6057559974, -0.268, 0.788, 0.524, 192.0, 0.0, 0.0, 0.0, 0.0, 0.0, 0.0, 0.0, 0.0, 0.0, 1.7272859525600793E9, 0.0, 2024-09-25 12:39:12.560
46.0, 135200.85188160563, 187500.0, 155197.16950621243, 141079.71830126265, 66546.59706909623, 117379.04606807782, 124594.03271603976, 128399.08193338895, -0.268, 0.788, 0.524, 192.0, 0.0, 0.0, 0.0, 0.0, 0.0, 0.0, 0.0, 0.0, 0.0, 1.7272859525630386E9, 0.0, 2024-09-25 12:39:12.563
47.0, 135198.16967227097, 187500.0, 155154.25415685822, 141070.4423273137, 66519.9984931944, 117372.67582090806, 124598.32425097517, 128396.98086941015, -0.268, 0.788, 0.524, 192.0, 0.0, 0.0, 0.0, 0.0, 0.0, 0.0, 0.0, 0.0, 0.0, 1.727285952566106E9, 0.0, 2024-09-25 12:39:12.566
48.0, 135215.7157916684, 187500.0, 155179.46692460382, 141068.63183601282, 66541.67968531605, 117363.71277138148, 124597.47488468587, 128389.31422106198, -0.268, 0.788, 0.524, 192.0, 0.0, 0.0, 0.0, 0.0, 0.0, 0.0, 0.0, 0.0, 0.0, 1.727285952571112E9, 0.0, 2024-09-25 12:39:12.571
49.0, 135222.7565911718, 187500.0, 155236.62033517603, 141083.13811816432, 66575.47552293248, 117373.32402149726, 124598.659527142, 128402.68056424626, -0.268, 0.796, 0.53, 192.0, 247.0, 160.0, 24.0, 224.0, 16.0, 144.0, 0.0, 0.0, 0.0, 1.7272859525750797E9, 0.0, 2024-09-25 12:39:12.575
50.0, 135209.23378577636, 187500.0, 155218.76129135626, 141085.6638652878, 66558.42114191307, 117382.91291986858, 124602.61578591059, 128416.44923883073, -0.268, 0.796, 0.53, 192.0, 0.0, 0.0, 0.0, 0.0, 0.0, 0.0, 0.0, 0.0, 0.0, 1.7272859525781128E9, 0.0, 2024-09-25 12:39:12.578
51.0, 135204.9646025854, 187500.0, 155166.54761630864, 141075.58322853842, 66524.26767638537, 117379.56015820029, 124603.28633824424, 128413.16353239579, -0.268, 0.796, 0.53, 192.0, 0.0, 0.0, 0.0, 0.0, 0.0, 0.0, 0.0, 0.0, 0.0, 1.7272859525820916E9, 0.0, 2024-09-25 12:39:12.582
52.0, 135225.34939352862, 187500.0, 155174.6836512904, 141076.2090773832, 66535.24238291293, 117374.21809127547, 124605.52151268978, 128401.29475609002, -0.268, 0.796, 0.53, 192.0, 0.0, 0.0, 0.0, 0.0, 0.0, 0.0, 0.0, 0.0, 0.0, 1.7272859525861037E9, 0.0, 2024-09-25 12:39:12.586
53.0, 135232.54665524323, 187500.0, 155228.12667228302, 141083.8533739869, 66571.13928450814, 117379.51545471138, 124605.74503013433, 128406.43565731475, -0.268, 0.796, 0.53, 192.0, 0.0, 0.0, 0.0, 0.0, 0.0, 0.0, 0.0, 0.0, 0.0, 1.7272859525901337E9, 0.0, 2024-09-25 12:39:12.590
54.0, 135222.48837023837, 187500.0, 155224.30452398118, 141085.17212690975, 66559.94106053603, 117386.62330944817, 124606.03560281225, 128409.47549456067, -0.268, 0.796, 0.53, 192.0, 0.0, 0.0, 0.0, 0.0, 0.0, 0.0, 0.0, 0.0, 0.0, 1.72728595259416E9, 0.0, 2024-09-25 12:39:12.594
55.0, 135207.22212877538, 187500.0, 155163.26190987372, 141063.7368039771, 66514.07528091375, 117374.35220174221, 124598.30189923072, 128394.74569496461, -0.268, 0.796, 0.53, 192.0, 0.0, 0.0, 0.0, 0.0, 0.0, 0.0, 0.0, 0.0, 0.0, 1.727285952599101E9, 0.0, 2024-09-25 12:39:12.599
56.0, 135224.5670824727, 187500.0, 155157.56221503761, 141059.6017312529, 66514.16468789156, 117361.87992833614, 124603.17457952198, 128373.35507552089, -0.268, 0.796, 0.53, 192.0, 0.0, 0.0, 0.0, 0.0, 0.0, 0.0, 0.0, 0.0, 0.0, 1.7272859526021242E9, 0.0, 2024-09-25 12:39:12.602
57.0, 135239.0286611353, 187500.0, 155224.7292071258, 141075.13619364932, 66554.08490348875, 117368.13841678362, 124609.88010285856, 128383.86039541489, -0.268, 0.796, 0.53, 192.0, 0.0, 0.0, 0.0, 0.0, 0.0, 0.0, 0.0, 0.0, 0.0, 1.7272859526060903E9, 0.0, 2024-09-25 12:39:12.606
58.0, 135227.65162320752, 187500.0, 155238.8555096216, 141088.5025368336, 66557.03533375685, 117383.33760301323, 124617.09971631762, 128398.09845663291, -0.268, 0.796, 0.53, 192.0, 0.0, 0.0, 0.0, 0.0, 0.0, 0.0, 0.0, 0.0, 0.0, 1.7272859526101367E9, 0.0, 2024-09-25 12:39:12.610
59.0, 135214.17352130098, 187500.0, 155191.76038405424, 141076.96903669467, 66524.69235953002, 117382.66705067958, 124614.88689361655, 128403.93226193576, -0.266, 0.79, 0.524, 192.0, 247.0, 176.0, 24.0, 176.0, 16.0, 96.0, 0.0, 0.0, 0.0, 1.7272859526141553E9, 0.0, 2024-09-25 12:39:12.614
60.0, 135222.89070163856, 187500.0, 155170.3250611216, 141066.70958598968, 66512.66712101306, 117371.33471624074, 124613.72460290488, 128392.93520366374, -0.266, 0.79, 0.524, 192.0, 0.0, 0.0, 0.0, 0.0, 0.0, 0.0, 0.0, 0.0, 0.0, 1.727285952618139E9, 0.0, 2024-09-25 12:39:12.618
61.0, 135232.88193141008, 187500.0, 155221.7340733688, 141074.91267620478, 66548.49696737491, 117370.7535708849, 124613.1658092935, 128393.6504594863, -0.266, 0.79, 0.524, 192.0, 0.0, 0.0, 0.0, 0.0, 0.0, 0.0, 0.0, 0.0, 0.0, 1.727285952622122E9, 0.0, 2024-09-25 12:39:12.622
62.0, 135226.6681464515, 187500.0, 155238.00614333228, 141081.81936524145, 66553.0567232438, 117376.14034129863, 124612.94229184894, 128394.96921240917, -0.266, 0.79, 0.524, 192.0, 0.0, 0.0, 0.0, 0.0, 0.0, 0.0, 0.0, 0.0, 0.0, 1.727285952627166E9, 0.0, 2024-09-25 12:39:12.627
63.0, 135213.92765211198, 187500.0, 155185.45719211784, 141073.45981281518, 66518.0985949157, 117378.37551574416, 124616.63032968406, 128386.60965998289, -0.266, 0.79, 0.524, 192.0, 0.0, 0.0, 0.0, 0.0, 0.0, 0.0, 0.0, 0.0, 0.0, 1.7272859526301732E9, 0.0, 2024-09-25 12:39:12.630
64.0, 135221.9072248825, 187500.0, 155163.373668596, 141070.93406569172, 66511.46012681248, 117380.94596635652, 124618.75374540732, 128391.86231992989, -0.266, 0.79, 0.524, 192.0, 0.0, 0.0, 0.0, 0.0, 0.0, 0.0, 0.0, 0.0, 0.0, 1.7272859526331375E9, 0.0, 2024-09-25 12:39:12.633
65.0, 135243.5213617708, 187500.0, 155206.91486679495, 141081.9087722193, 66542.66316207209, 117380.38717274513, 124619.33489076316, 128387.07904661645, -0.266, 0.79, 0.524, 192.0, 0.0, 0.0, 0.0, 0.0, 0.0, 0.0, 0.0, 0.0, 0.0, 1.7272859526391623E9, 0.0, 2024-09-25 12:39:12.639
66.0, 135236.74878320083, 187500.0, 155242.9905823458, 141093.21875491366, 66560.03046751386, 117390.31134728329, 124612.91994010449, 128397.4055525548, -0.266, 0.79, 0.524, 192.0, 0.0, 0.0, 0.0, 0.0, 0.0, 0.0, 0.0, 0.0, 0.0, 1.7272859526431987E9, 0.0, 2024-09-25 12:39:12.643
67.0, 135218.28624228077, 187500.0, 155203.56210512665, 141083.8533739869, 66527.1063479312, 117392.09948683972, 124608.62840516906, 128402.56880552397, -0.266, 0.79, 0.524, 192.0, 0.0, 0.0, 0.0, 0.0, 0.0, 0.0, 0.0, 0.0, 0.0, 1.727285952647241E9, 0.0, 2024-09-25 12:39:12.647
68.0, 135222.84599814966, 187500.0, 155163.50777906273, 141074.2421238711, 66503.65936799758, 117385.25985303639, 124610.6624139145, 128395.23743334264, -0.266, 0.79, 0.524, 192.0, 0.0, 0.0, 0.0, 0.0, 0.0, 0.0, 0.0, 0.0, 0.0, 1.7272859526502051E9, 0.0, 2024-09-25 12:39:12.650
69.0, 135241.48735302538, 187500.0, 155191.15688695395, 141077.28196111703, 66526.2569816419, 117374.73218139795, 124607.1084865461, 128380.90996514678, -0.266, 0.79, 0.524, 192.0, 0.0, 0.0, 0.0, 0.0, 0.0, 0.0, 0.0, 0.0, 0.0, 1.727285952655193E9, 0.0, 2024-09-25 12:39:12.655
70.0, 135237.28522506778, 187500.0, 155244.91283236895, 141092.77172002455, 66559.29285994683, 117388.41144900459, 124607.77903887976, 128400.33363107845, -0.264, 0.794, 0.532, 192.0, 247.0, 192.0, 24.0, 208.0, 16.0, 160.0, 0.0, 0.0, 0.0, 1.7272859526582196E9, 0.0, 2024-09-25 12:39:12.658
71.0, 135216.3192887687, 187500.0, 155214.380349443, 141083.8533739869, 66533.18602242303, 117387.51737922638, 124604.00159406682, 128405.18395962525, -0.264, 0.794, 0.532, 192.0, 0.0, 0.0, 0.0, 0.0, 0.0, 0.0, 0.0, 0.0, 0.0, 1.7272859526622183E9, 0.0, 2024-09-25 12:39:12.662
72.0, 135224.2094545614, 187500.0, 155161.76434299521, 141075.22560062713, 66502.11709763017, 117379.49310296692, 124611.44472497044, 128385.93910764923, -0.264, 0.794, 0.532, 192.0, 0.0, 0.0, 0.0, 0.0, 0.0, 0.0, 0.0, 0.0, 0.0, 1.7272859526662133E9, 0.0, 2024-09-25 12:39:12.666
73.0, 135241.19678034744, 187500.0, 155183.93727349487, 141078.82423148444, 66524.13356591863, 117379.24723377792, 124616.40681223951, 128376.84194765592, -0.264, 0.794, 0.532, 192.0, 0.0, 0.0, 0.0, 0.0, 0.0, 0.0, 0.0, 0.0, 0.0, 1.727285952670222E9, 0.0, 2024-09-25 12:39:12.670
74.0, 135248.25993159533, 187500.0, 155245.2928120247, 141093.5540310805, 66564.63492687166, 117391.67480369507, 124617.88202737356, 128393.87397693086, -0.264, 0.794, 0.532, 192.0, 0.0, 0.0, 0.0, 0.0, 0.0, 0.0, 0.0, 0.0, 0.0, 1.7272859526742501E9, 0.0, 2024-09-25 12:39:12.674
75.0, 135226.0646493512, 187500.0, 155224.61744840353, 141090.22362115665, 66545.56888885128, 117394.58053047425, 124614.97630059437, 128397.42790429926, -0.264, 0.794, 0.532, 192.0, 0.0, 0.0, 0.0, 0.0, 0.0, 0.0, 0.0, 0.0, 0.0, 1.7272859526782846E9, 0.0, 2024-09-25 12:39:12.678
76.0, 135212.83241663367, 187500.0, 155170.25800588823, 141074.77856573803, 66509.98491167843, 117384.56694895828, 124607.86844585759, 128394.32101181996, -0.264, 0.794, 0.532, 192.0, 0.0, 0.0, 0.0, 0.0, 0.0, 0.0, 0.0, 0.0, 0.0, 1.72728595268231E9, 0.0, 2024-09-25 12:39:12.682
77.0, 135241.26383558082, 187500.0, 155179.51162809273, 141080.0535774295, 66522.9042199736, 117382.24236753493, 124617.5691029512, 128387.7495989501, -0.264, 0.794, 0.532, 192.0, 0.0, 0.0, 0.0, 0.0, 0.0, 0.0, 0.0, 0.0, 0.0, 1.727285952686247E9, 0.0, 2024-09-25 12:39:12.686
78.0, 135242.94021641495, 187500.0, 155235.68156190892, 141088.12255717785, 66555.67187734507, 117384.58930070273, 124611.40002148153, 128392.01878214107, -0.264, 0.794, 0.532, 192.0, 0.0, 0.0, 0.0, 0.0, 0.0, 0.0, 0.0, 0.0, 0.0, 1.7272859526893127E9, 0.0, 2024-09-25 12:39:12.689
79.0, 135222.60012896062, 187500.0, 155233.46873920783, 141087.6531705443, 66545.18890919554, 117389.12670482717, 124605.4097539675, 128402.03236365705, -0.264, 0.794, 0.532, 192.0, 0.0, 0.0, 0.0, 0.0, 0.0, 0.0, 0.0, 0.0, 0.0, 1.7272859526943042E9, 0.0, 2024-09-25 12:39:12.694
80.0, 135221.88487313807, 187500.0, 155182.50676184974, 141083.11576641988, 66512.95769369099, 117385.72923966995, 124612.00351858181, 128395.9526891652, -0.268, 0.8, 0.522, 192.0, 247.0, 160.0, 25.0, 0.0, 16.0, 80.0, 0.0, 0.0, 0.0, 1.72728595269826E9, 0.0, 2024-09-25 12:39:12.698
81.0, 135235.78765818928, 187500.0, 155173.16373266742, 141083.4510425867, 66512.10832740169, 117379.71662041148, 124615.55744595021, 128387.07904661645, -0.268, 0.8, 0.522, 192.0, 0.0, 0.0, 0.0, 0.0, 0.0, 0.0, 0.0, 0.0, 0.0, 1.7272859527022796E9, 0.0, 2024-09-25 12:39:12.702
82.0, 135239.6321582356, 187500.0, 155217.5319454112, 141085.17212690975, 66541.99260973843, 117373.01109707488, 124611.69059415945, 128378.83125291244, -0.268, 0.8, 0.522, 192.0, 0.0, 0.0, 0.0, 0.0, 0.0, 0.0, 0.0, 0.0, 0.0, 1.7272859527062616E9, 0.0, 2024-09-25 12:39:12.706
83.0, 135227.9645476299, 187500.0, 155225.9362013264, 141089.66482754526, 66542.03731322734, 117378.82255063327, 124611.19885578143, 128378.67479070125, -0.268, 0.8, 0.522, 192.0, 0.0, 0.0, 0.0, 0.0, 0.0, 0.0, 0.0, 0.0, 0.0, 1.7272859527122753E9, 0.0, 2024-09-25 12:39:12.712
84.0, 135214.48644572336, 187500.0, 155181.9256164939, 141082.22169664165, 66513.51648730236, 117385.05868733629, 124605.63327141205, 128387.81665418348, -0.268, 0.8, 0.522, 192.0, 0.0, 0.0, 0.0, 0.0, 0.0, 0.0, 0.0, 0.0, 0.0, 1.7272859527152977E9, 0.0, 2024-09-25 12:39:12.715
85.0, 135225.0141173618, 187500.0, 155159.05978191612, 141071.62696976983, 66502.38531856363, 117374.1063325532, 124601.18527426544, 128383.01102912558, -0.268, 0.8, 0.522, 192.0, 0.0, 0.0, 0.0, 0.0, 0.0, 0.0, 0.0, 0.0, 0.0, 1.7272859527182753E9, 0.0, 2024-09-25 12:39:12.718
86.0, 135249.0198909068, 187500.0, 155207.1830877284, 141076.79022273902, 66535.5553073353, 117370.57475692926, 124601.98993706584, 128379.07712210144, -0.268, 0.8, 0.522, 192.0, 0.0, 0.0, 0.0, 0.0, 0.0, 0.0, 0.0, 0.0, 0.0, 1.727285952723318E9, 0.0, 2024-09-25 12:39:12.723
87.0, 135246.44944029444, 187500.0, 155231.9935240738, 141090.08951068993, 66550.03923774234, 117381.03537333434, 124609.38836448055, 128380.5523372355, -0.268, 0.8, 0.522, 192.0, 0.0, 0.0, 0.0, 0.0, 0.0, 0.0, 0.0, 0.0, 0.0, 1.7272859527272844E9, 0.0, 2024-09-25 12:39:12.727
88.0, 135219.42618124798, 187500.0, 155186.77594504072, 141078.73482450662, 66517.6962635155, 117381.23653903443, 124604.67214640048, 128387.19080533873, -0.268, 0.8, 0.522, 192.0, 0.0, 0.0, 0.0, 0.0, 0.0, 0.0, 0.0, 0.0, 0.0, 1.7272859527313125E9, 0.0, 2024-09-25 12:39:12.731
89.0, 135217.32511726918, 187500.0, 155161.6302325285, 141080.1429844073, 66506.83331571023, 117387.51737922638, 124614.28339651626, 128388.37544779485, -0.268, 0.8, 0.522, 192.0, 0.0, 0.0, 0.0, 0.0, 0.0, 0.0, 0.0, 0.0, 0.0, 1.727285952737357E9, 0.0, 2024-09-25 12:39:12.737
90.0, 135229.23859706387, 187500.0, 155201.55044812566, 141085.61916179885, 66536.80700502479, 117388.18793156004, 124617.70321341792, 128382.54164249203, -0.264, 0.796, 0.522, 192.0, 247.0, 192.0, 24.0, 224.0, 16.0, 80.0, 0.0, 0.0, 0.0, 1.7272859527403405E9, 0.0, 2024-09-25 12:39:12.740
91.0, 135233.9771668884, 187500.0, 155234.02753281922, 141090.2012694122, 66552.54263312134, 117390.9595478725, 124613.18816103795, 128387.32491580545, -0.264, 0.796, 0.522, 192.0, 0.0, 0.0, 0.0, 0.0, 0.0, 0.0, 0.0, 0.0, 0.0, 1.7272859527433484E9, 0.0, 2024-09-25 12:39:12.743
92.0, 135220.02967834828, 187500.0, 155200.0305295027, 141088.2119641557, 66528.49215608742, 117392.16654207309, 124613.67989941596, 128395.7068199762, -0.264, 0.796, 0.522, 192.0, 0.0, 0.0, 0.0, 0.0, 0.0, 0.0, 0.0, 0.0, 0.0, 1.7272859527473648E9, 0.0, 2024-09-25 12:39:12.747
93.0, 135217.92861436948, 187500.0, 155151.1696161234, 141078.42190008424, 66499.52429527334, 117379.22488203346, 124618.30671051821, 128377.75836917858, -0.264, 0.796, 0.522, 192.0, 0.0, 0.0, 0.0, 0.0, 0.0, 0.0, 0.0, 0.0, 0.0, 1.727285952750346E9, 0.0, 2024-09-25 12:39:12.750
94.0, 135234.0665738662, 187500.0, 155183.44553511686, 141080.6570745298, 66524.91587697457, 117378.71079191098, 124618.8208006407, 128377.37838952284, -0.264, 0.796, 0.522, 192.0, 0.0, 0.0, 0.0, 0.0, 0.0, 0.0, 0.0, 0.0, 0.0, 1.72728595275431E9, 0.0, 2024-09-25 12:39:12.754
95.0, 135231.7643441873, 187500.0, 155235.65921016445, 141090.49184209012, 66556.87887154566, 117389.37257401618, 124619.8713326301, 128390.34240130693, -0.264, 0.796, 0.522, 192.0, 0.0, 0.0, 0.0, 0.0, 0.0, 0.0, 0.0, 0.0, 0.0, 1.7272859527582948E9, 0.0, 2024-09-25 12:39:12.758
96.0, 135224.924710384, 187500.0, 155219.09656752308, 141095.2527636591, 66542.39494113863, 117403.63298697866, 124624.58755071016, 128406.70387824821, -0.264, 0.796, 0.522, 192.0, 0.0, 0.0, 0.0, 0.0, 0.0, 0.0, 0.0, 0.0, 0.0, 1.7272859527623527E9, 0.0, 2024-09-25 12:39:12.762
97.0, 135223.29303303876, 187500.0, 155164.55831105213, 141080.9476472077, 66507.72738548844, 117395.25108280791, 124620.9665681084, 128394.43277054225, -0.264, 0.796, 0.522, 192.0, 0.0, 0.0, 0.0, 0.0, 0.0, 0.0, 0.0, 0.0, 0.0, 1.727285952765319E9, 0.0, 2024-09-25 12:39:12.765
98.0, 135232.50195175433, 187500.0, 155185.34543339556, 141075.4044145828, 66526.9051822311, 117392.6582804511, 124609.94715809193, 128401.74179097913, -0.264, 0.796, 0.522, 192.0, 0.0, 0.0, 0.0, 0.0, 0.0, 0.0, 0.0, 0.0, 0.0, 1.7272859527693796E9, 0.0, 2024-09-25 12:39:12.769
99.0, 135237.50874251232, 187500.0, 155236.30741075368, 141083.2945803755, 66557.81764481278, 117397.1062775977, 124610.84122787014, 128407.17326488177, -0.264, 0.796, 0.522, 192.0, 0.0, 0.0, 0.0, 0.0, 0.0, 0.0, 0.0, 0.0, 0.0, 1.7272859527733648E9, 0.0, 2024-09-25 12:39:12.773
100.0, 135224.2094545614, 187500.0, 155211.2734569637, 141084.0098361981, 66533.47659510096, 117397.01687061989, 124610.77417263678, 128395.23743334264, -0.266, 0.796, 0.522, 192.0, 247.0, 176.0, 24.0, 224.0, 16.0, 80.0, 0.0, 0.0, 0.0, 1.7272859527773569E9, 0.0, 2024-09-25 12:39:12.777
101.0, 135225.84113190667, 187500.0, 155158.05395341563, 141080.0088739406, 66499.30077782879, 117392.27830079535, 124614.08223081616, 128378.47362500116, -0.266, 0.796, 0.522, 192.0, 0.0, 0.0, 0.0, 0.0, 0.0, 0.0, 0.0, 0.0, 0.0, 1.7272859527823875E9, 0.0, 2024-09-25 12:39:12.782
102.0, 135235.2288645779, 187500.0, 155171.0850204331, 141078.71247276218, 66514.63407452514, 117393.21707406249, 124613.8587133716, 128384.97798263765, -0.266, 0.796, 0.522, 192.0, 0.0, 0.0, 0.0, 0.0, 0.0, 0.0, 0.0, 0.0, 0.0, 1.7272859527863533E9, 0.0, 2024-09-25 12:39:12.786
103.0, 135242.09085012565, 187500.0, 155224.50568968127, 141085.68621703223, 66547.69230457454, 117390.53486472784, 124614.37280349409, 128382.40753202529, -0.266, 0.796, 0.522, 192.0, 0.0, 0.0, 0.0, 0.0, 0.0, 0.0, 0.0, 0.0, 0.0, 1.7272859527903762E9, 0.0, 2024-09-25 12:39:12.790
104.0, 135222.33190802718, 187500.0, 155223.36575071403, 141085.3956443543, 66543.5572318503, 117393.66410895159, 124611.02004182579, 128385.82734892695, -0.266, 0.796, 0.522, 192.0, 0.0, 0.0, 0.0, 0.0, 0.0, 0.0, 0.0, 0.0, 0.0, 1.7272859527944393E9, 0.0, 2024-09-25 12:39:12.794
105.0, 135214.77701840128, 187500.0, 155173.1860844119, 141073.72803374863, 66511.61658902366, 117389.73020192745, 124610.61771042559, 128379.59121222392, -0.266, 0.796, 0.522, 192.0, 0.0, 0.0, 0.0, 0.0, 0.0, 0.0, 0.0, 0.0, 0.0, 1.7272859527983837E9, 0.0, 2024-09-25 12:39:12.798
106.0, 135232.8148761767, 187500.0, 155168.80514249863, 141071.53756279201, 66512.93534194653, 117388.27733853787, 124610.55065519223, 128377.4007412673, -0.266, 0.796, 0.522, 192.0, 0.0, 0.0, 0.0, 0.0, 0.0, 0.0, 0.0, 0.0, 0.0, 1.727285952801432E9, 0.0, 2024-09-25 12:39:12.801
107.0, 135250.36099557413, 187500.0, 155218.06838727812, 141084.18865015372, 66545.07715047325, 117387.02564084837, 124611.62353892608, 128370.2034795527, -0.266, 0.796, 0.522, 192.0, 0.0, 0.0, 0.0, 0.0, 0.0, 0.0, 0.0, 0.0, 0.0, 1.727285952805514E9, 0.0, 2024-09-25 12:39:12.805
108.0, 135240.19095184695, 187500.0, 155235.68156190892, 141096.23624041514, 66551.06741798729, 117396.39102177514, 124612.62936742656, 128379.27828780154, -0.266, 0.796, 0.522, 192.0, 0.0, 0.0, 0.0, 0.0, 0.0, 0.0, 0.0, 0.0, 0.0, 1.727285952810504E9, 0.0, 2024-09-25 12:39:12.810
109.0, 135228.63509996358, 187500.0, 155194.84492478907, 141094.6045630699, 66524.87117348566, 117399.98965263244, 124616.13859130605, 128387.92841290575, -0.266, 0.796, 0.522, 192.0, 0.0, 0.0, 0.0, 0.0, 0.0, 0.0, 0.0, 0.0, 0.0, 1.7272859528144658E9, 0.0, 2024-09-25 12:39:12.814
110.0, 135227.5175127408, 187500.0, 155162.99368894027, 141080.76883325205, 66511.5942372792, 117382.84586463522, 124609.99186158084, 128375.23262205513, -0.266, 0.796, 0.522, 192.0, 0.0, 0.0, 0.0, 0.0, 0.0, 0.0, 0.0, 0.0, 0.0, 1.7272859528184545E9, 0.0, 2024-09-25 12:39:12.818
111.0, 135239.81097219122, 187500.0, 155216.7272826108, 141090.53654557903, 66551.40269415411, 117389.03729784934, 124609.76834413629, 128389.6494972288, -0.278, 0.798, 0.524, 192.0, 247.0, 80.0, 24.0, 240.0, 16.0, 96.0, 0.0, 0.0, 0.0, 1.7272859528215408E9, 0.0, 2024-09-25 12:39:12.821
112.0, 135234.3794982886, 187500.0, 155242.2976782677, 141097.68910380473, 66560.09752274722, 117392.54652172883, 124610.37184123659, 128392.309354819, -0.278, 0.798, 0.524, 192.0, 0.0, 0.0, 0.0, 0.0, 0.0, 0.0, 0.0, 0.0, 0.0, 1.7272859528255184E9, 0.0, 2024-09-25 12:39:12.825
113.0, 135223.3600882721, 187500.0, 155189.59226484207, 141089.46366184516, 66522.34542636221, 117384.83516989174, 124609.74599239184, 128373.73505517663, -0.278, 0.798, 0.524, 192.0, 0.0, 0.0, 0.0, 0.0, 0.0, 0.0, 0.0, 0.0, 0.0, 1.727285952830478E9, 0.0, 2024-09-25 12:39:12.830
114.0, 135238.425164035, 187500.0, 155151.54959577916, 141086.1556036658, 66503.50290578639, 117381.72827741246, 124619.29018727425, 128355.22781076764, -0.278, 0.798, 0.524, 192.0, 0.0, 0.0, 0.0, 0.0, 0.0, 0.0, 0.0, 0.0, 0.0, 1.7272859528354917E9, 0.0, 2024-09-25 12:39:12.835
115.0, 135252.14913513054, 187500.0, 155205.90903829446, 141095.92331599275, 66546.39590339613, 117390.69132693904, 124623.80523965422, 128372.12572957586, -0.278, 0.798, 0.524, 192.0, 0.0, 0.0, 0.0, 0.0, 0.0, 0.0, 0.0, 0.0, 0.0, 1.7272859528395164E9, 0.0, 2024-09-25 12:39:12.839
116.0, 135239.4756960244, 187500.0, 155247.97502135934, 141102.15945269578, 66569.70877286301, 117395.67576595256, 124615.82566688367, 128394.4104187978, -0.278, 0.798, 0.524, 192.0, 0.0, 0.0, 0.0, 0.0, 0.0, 0.0, 0.0, 0.0, 0.0, 1.7272859528435135E9, 0.0, 2024-09-25 12:39:12.843
117.0, 135223.00246036082, 187500.0, 155215.3861779435, 141096.72797879315, 66543.24430742793, 117400.32492879927, 124611.5117802038, 128408.15674163781, -0.278, 0.798, 0.524, 192.0, 0.0, 0.0, 0.0, 0.0, 0.0, 0.0, 0.0, 0.0, 0.0, 1.7272859528475103E9, 0.0, 2024-09-25 12:39:12.847
118.0, 135225.28233829528, 187500.0, 155169.14041866548, 141085.57445830994, 66515.77401349235, 117393.28412929585, 124612.62936742656, 128399.52896827806, -0.278, 0.798, 0.524, 192.0, 0.0, 0.0, 0.0, 0.0, 0.0, 0.0, 0.0, 0.0, 0.0, 1.7272859528514855E9, 0.0, 2024-09-25 12:39:12.851
119.0, 135254.2278473649, 187500.0, 155190.26281717574, 141089.66482754526, 66533.52129858987, 117389.77490541637, 124620.29601577474, 128383.05573261449, -0.278, 0.798, 0.524, 192.0, 0.0, 0.0, 0.0, 0.0, 0.0, 0.0, 0.0, 0.0, 0.0, 1.7272859528544943E9, 0.0, 2024-09-25 12:39:12.854
120.0, 135253.95962643143, 187500.0, 155235.01100957525, 141093.91165899177, 66561.6621448591, 117392.83709440674, 124621.90534137552, 128378.92065989027, -0.278, 0.798, 0.524, 192.0, 0.0, 0.0, 0.0, 0.0, 0.0, 0.0, 0.0, 0.0, 0.0, 1.7272859528575294E9, 0.0, 2024-09-25 12:39:12.857
121.0, 135231.80904767622, 187500.0, 155214.84973607658, 141088.07785368894, 66547.66995283008, 117397.08392585325, 124618.88785587405, 128386.38614253834, -0.278, 0.798, 0.524, 192.0, 247.0, 80.0, 24.0, 240.0, 16.0, 96.0, 0.0, 0.0, 0.0, 1.7272859528615704E9, 0.0, 2024-09-25 12:39:12.861
122.0, 135223.89653013906, 187500.0, 155163.59718604054, 141072.67750175923, 66515.19286813651, 117390.91484438359, 124613.29991976023, 128384.64270647083, -0.278, 0.798, 0.524, 192.0, 0.0, 0.0, 0.0, 0.0, 0.0, 0.0, 0.0, 0.0, 0.0, 1.7272859528655748E9, 0.0, 2024-09-25 12:39:12.865
123.0, 135242.11320187012, 187500.0, 155171.80027625564, 141072.0963564034, 66525.56407756377, 117385.86335013669, 124617.90437911802, 128374.02562785456, -0.278, 0.798, 0.524, 192.0, 0.0, 0.0, 0.0, 0.0, 0.0, 0.0, 0.0, 0.0, 0.0, 1.7272859528705907E9, 0.0, 2024-09-25 12:39:12.870
124.0, 135244.0801553822, 187500.0, 155228.2384310053, 141079.11480416238, 66560.45515065851, 117389.37257401618, 124615.02100408329, 128380.59704072442, -0.278, 0.798, 0.524, 192.0, 0.0, 0.0, 0.0, 0.0, 0.0, 0.0, 0.0, 0.0, 0.0, 1.7272859528736029E9, 0.0, 2024-09-25 12:39:12.873
125.0, 135230.3114807977, 187500.0, 155222.136404769, 141082.46756583065, 66550.84390054274, 117399.45321076551, 124615.19981803893, 128397.85258744391, -0.278, 0.798, 0.524, 192.0, 0.0, 0.0, 0.0, 0.0, 0.0, 0.0, 0.0, 0.0, 0.0, 1.727285952877534E9, 0.0, 2024-09-25 12:39:12.877
126.0, 135222.8236464052, 187500.0, 155164.3347936076, 141070.554086036, 66514.85759196969, 117395.56400723029, 124617.32323376219, 128392.08583737444, -0.278, 0.798, 0.524, 192.0, 0.0, 0.0, 0.0, 0.0, 0.0, 0.0, 0.0, 0.0, 0.0, 1.7272859528815477E9, 0.0, 2024-09-25 12:39:12.881
127.0, 135234.49125701087, 187500.0, 155158.63509877148, 141064.4967632886, 66516.57867629275, 117382.66705067958, 124612.53996044875, 128380.50763374659, -0.278, 0.798, 0.524, 192.0, 0.0, 0.0, 0.0, 0.0, 0.0, 0.0, 0.0, 0.0, 0.0, 1.7272859528855937E9, 0.0, 2024-09-25 12:39:12.885
128.0, 135244.16956236, 187500.0, 155223.90219258098, 141075.6055802829, 66559.7622465804, 117390.42310600558, 124611.60118718163, 128395.93033742075, -0.278, 0.798, 0.524, 192.0, 0.0, 0.0, 0.0, 0.0, 0.0, 0.0, 0.0, 0.0, 0.0, 1.7272859528895955E9, 0.0, 2024-09-25 12:39:12.889
129.0, 135239.54275125774, 187500.0, 155231.4347304624, 141084.47922283164, 66557.12474073467, 117396.92746364206, 124615.19981803893, 128399.0595816445, -0.278, 0.798, 0.524, 192.0, 0.0, 0.0, 0.0, 0.0, 0.0, 0.0, 0.0, 0.0, 0.0, 1.727285952894591E9, 0.0, 2024-09-25 12:39:12.894
130.0, 135231.69728895393, 187500.0, 155179.10929669254, 141074.3538825934, 66520.42317633906, 117390.02077460538, 124613.12110580459, 128390.07418037346, -0.278, 0.798, 0.524, 192.0, 0.0, 0.0, 0.0, 0.0, 0.0, 0.0, 0.0, 0.0, 0.0, 1.7272859528985565E9, 0.0, 2024-09-25 12:39:12.898
131.0, 135244.54954201574, 187500.0, 155159.7303342498, 141069.3023883465, 66512.28714135733, 117382.06355357928, 124617.30088201772, 128371.52223247556, -0.27, 0.798, 0.526, 192.0, 247.0, 144.0, 24.0, 240.0, 16.0, 112.0, 0.0, 0.0, 0.0, 1.7272859529015956E9, 0.0, 2024-09-25 12:39:12.901
132.0, 135253.51259154233, 187500.0, 155215.1850122434, 141076.38789133882, 66552.02854299886, 117386.01981234788, 124615.5127424613, 128379.32299129046, -0.27, 0.798, 0.526, 192.0, 0.0, 0.0, 0.0, 0.0, 0.0, 0.0, 0.0, 0.0, 0.0, 1.7272859529055805E9, 0.0, 2024-09-25 12:39:12.905
133.0, 135237.6205012346, 187500.0, 155238.2520125213, 141078.6007140399, 66562.95854603751, 117392.54652172883, 124608.82957086916, 128392.555224008, -0.27, 0.798, 0.526, 192.0, 0.0, 0.0, 0.0, 0.0, 0.0, 0.0, 0.0, 0.0, 0.0, 1.7272859529095542E9, 0.0, 2024-09-25 12:39:12.909
134.0, 135228.3668790301, 187500.0, 155181.0762502046, 141071.1575831363, 66524.13356591863, 117388.54555947133, 124611.04239357024, 128376.73018893364, -0.27, 0.798, 0.526, 192.0, 0.0, 0.0, 0.0, 0.0, 0.0, 0.0, 0.0, 0.0, 0.0, 1.7272859529135735E9, 0.0, 2024-09-25 12:39:12.913
135.0, 135231.09379185364, 187500.0, 155154.79059872517, 141064.3850045663, 66508.5991035222, 117382.95762335749, 124606.75085863483, 128373.06450284297, -0.27, 0.798, 0.526, 192.0, 0.0, 0.0, 0.0, 0.0, 0.0, 0.0, 0.0, 0.0, 0.0, 1.727285952917628E9, 0.0, 2024-09-25 12:39:12.917
136.0, 135243.34254781515, 187500.0, 155200.81284055865, 141070.4423273137, 66542.3055341608, 117378.57668144426, 124607.0637830572, 128371.052845842, -0.27, 0.798, 0.526, 192.0, 0.0, 0.0, 0.0, 0.0, 0.0, 0.0, 0.0, 0.0, 0.0, 1.7272859529217105E9, 0.0, 2024-09-25 12:39:12.921
137.0, 135242.29201582575, 187500.0, 155236.8438526206, 141085.3956443543, 66563.13735999315, 117387.83030364875, 124611.78000113726, 128380.88761340233, -0.27, 0.798, 0.526, 192.0, 0.0, 0.0, 0.0, 0.0, 0.0, 0.0, 0.0, 0.0, 0.0, 1.7272859529267223E9, 0.0, 2024-09-25 12:39:12.926
138.0, 135229.68563195298, 187500.0, 155196.81187830115, 141082.82519374194, 66531.04025495533, 117387.33856527074, 124608.6060534246, 128385.69323846023, -0.27, 0.798, 0.526, 192.0, 0.0, 0.0, 0.0, 0.0, 0.0, 0.0, 0.0, 0.0, 0.0, 1.727285952929707E9, 0.0, 2024-09-25 12:39:12.929
139.0, 135240.928559414, 187500.0, 155154.3659155805, 141070.82230696946, 66504.44167905352, 117376.11798955417, 124605.63327141205, 128372.90804063178, -0.27, 0.798, 0.526, 192.0, 0.0, 0.0, 0.0, 0.0, 0.0, 0.0, 0.0, 0.0, 0.0, 1.7272859529337385E9, 0.0, 2024-09-25 12:39:12.933
140.0, 135270.8798969841, 187500.0, 155189.68167181988, 141075.58322853842, 66531.28612414433, 117375.02275407586, 124608.87427435808, 128367.36480800687, -0.27, 0.798, 0.526, 192.0, 0.0, 0.0, 0.0, 0.0, 0.0, 0.0, 0.0, 0.0, 0.0, 1.7272859529376655E9, 0.0, 2024-09-25 12:39:12.937
141.0, 135252.81968746422, 187500.0, 155239.1460822995, 141086.24501064362, 66562.7126768485, 117386.31038502579, 124610.77417263678, 128383.43571227023, -0.268, 0.8, 0.532, 192.0, 247.0, 160.0, 25.0, 0.0, 16.0, 160.0, 0.0, 0.0, 0.0, 1.7272859529416757E9, 0.0, 2024-09-25 12:39:12.941
142.0, 135223.24832954982, 187500.0, 155211.0275877747, 141081.93112396373, 66541.54557484933, 117388.07617283777, 124612.00351858181, 128390.96825015168, -0.268, 0.8, 0.532, 192.0, 0.0, 0.0, 0.0, 0.0, 0.0, 0.0, 0.0, 0.0, 0.0, 1.7272859529457612E9, 0.0, 2024-09-25 12:39:12.945
143.0, 135225.03646910627, 187500.0, 155159.95385169433, 141068.296559846, 66511.92951344604, 117376.25210002091, 124609.2095505249, 128378.22775581214, -0.268, 0.8, 0.532, 192.0, 0.0, 0.0, 0.0, 0.0, 0.0, 0.0, 0.0, 0.0, 0.0, 1.7272859529496973E9, 0.0, 2024-09-25 12:39:12.949
144.0, 135244.5718937602, 187500.0, 155181.52328509372, 141067.13426913432, 66528.17923166505, 117373.32402149726, 124604.73920163384, 128372.90804063178, -0.268, 0.8, 0.532, 192.0, 0.0, 0.0, 0.0, 0.0, 0.0, 0.0, 0.0, 0.0, 0.0, 1.7272859529546988E9, 0.0, 2024-09-25 12:39:12.954
145.0, 135244.6836524825, 187500.0, 155236.66503866494, 141079.27126637354, 66561.88566230366, 117380.32011751177, 124603.01811731078, 128388.17428209475, -0.268, 0.8, 0.532, 192.0, 0.0, 0.0, 0.0, 0.0, 0.0, 0.0, 0.0, 0.0, 0.0, 1.7272859529577131E9, 0.0, 2024-09-25 12:39:12.957
146.0, 135230.08796335317, 187500.0, 155212.77102384222, 141075.33735934942, 66543.37841789465, 117377.59320468822, 124606.34852723463, 128386.9002326608, -0.268, 0.8, 0.532, 192.0, 0.0, 0.0, 0.0, 0.0, 0.0, 0.0, 0.0, 0.0, 0.0, 1.7272859529607177E9, 0.0, 2024-09-25 12:39:12.960
147.0, 135229.8197424197, 187500.0, 155149.85086320055, 141061.2334085981, 66504.3969755646, 117365.52326268236, 124606.12500979008, 128359.42993872524, -0.268, 0.8, 0.532, 192.0, 0.0, 0.0, 0.0, 0.0, 0.0, 0.0, 0.0, 0.0, 0.0, 1.7272859529657505E9, 0.0, 2024-09-25 12:39:12.965
148.0, 135246.33768157216, 187500.0, 155159.2832993607, 141064.07208014396, 66519.48440307194, 117361.41054170259, 124609.70128890293, 128346.35416821888, -0.268, 0.8, 0.532, 192.0, 0.0, 0.0, 0.0, 0.0, 0.0, 0.0, 0.0, 0.0, 0.0, 1.727285952969713E9, 0.0, 2024-09-25 12:39:12.969
149.0, 135251.63504500806, 187500.0, 155224.10335828108, 141076.298484361, 66563.11500824869, 117374.08398080875, 124610.55065519223, 128367.0518835845, -0.268, 0.8, 0.532, 192.0, 0.0, 0.0, 0.0, 0.0, 0.0, 0.0, 0.0, 0.0, 0.0, 1.7272859529737425E9, 0.0, 2024-09-25 12:39:12.973
150.0, 135234.29009131077, 187500.0, 155218.76129135626, 141074.06330991548, 66553.4143511551, 117378.59903318872, 124603.28633824424, 128382.78751168103, -0.268, 0.8, 0.532, 192.0, 0.0, 0.0, 0.0, 0.0, 0.0, 0.0, 0.0, 0.0, 0.0, 1.7272859529777398E9, 0.0, 2024-09-25 12:39:12.977
151.0, 135228.09865809663, 187500.0, 155167.24052038678, 141065.01085341108, 66519.41734783856, 117378.08494306623, 124605.18623652295, 128390.27534607355, -0.268, 0.8, 0.532, 192.0, 0.0, 0.0, 0.0, 0.0, 0.0, 0.0, 0.0, 0.0, 0.0, 1.7272859529817412E9, 0.0, 2024-09-25 12:39:12.981
152.0, 135240.70504196943, 187500.0, 155161.80904648412, 141057.97005390766, 66518.59033329372, 117370.7535708849, 124602.63813765504, 128383.7039332037, -0.264, 0.792, 0.53, 192.0, 247.0, 192.0, 24.0, 192.0, 16.0, 144.0, 0.0, 0.0, 0.0, 1.7272859529858077E9, 0.0, 2024-09-25 12:39:12.985
153.0, 135245.935350172, 187500.0, 155213.82155583162, 141061.8369056984, 66549.36868540868, 117367.13258828314, 124598.92774807547, 128380.23941281313, -0.264, 0.792, 0.53, 192.0, 0.0, 0.0, 0.0, 0.0, 0.0, 0.0, 0.0, 0.0, 0.0, 1.727285952988711E9, 0.0, 2024-09-25 12:39:12.988
154.0, 135240.74974545834, 187500.0, 155221.42114894642, 141072.58809478141, 66548.58637435274, 117373.12285579716, 124603.5098556888, 128378.09364534542, -0.264, 0.792, 0.53, 192.0, 0.0, 0.0, 0.0, 0.0, 0.0, 0.0, 0.0, 0.0, 0.0, 1.7272859529938486E9, 0.0, 2024-09-25 12:39:12.993
155.0, 135229.35035578613, 187500.0, 155172.80610475614, 141063.26741734357, 66517.47274607095, 117373.63694591963, 124598.54776841972, 128376.59607846692, -0.264, 0.792, 0.53, 192.0, 0.0, 0.0, 0.0, 0.0, 0.0, 0.0, 0.0, 0.0, 0.0, 1.727285952997768E9, 0.0, 2024-09-25 12:39:12.997
156.0, 135233.50778025482, 187500.0, 155152.24249985727, 141053.20913233867, 66509.53787678933, 117370.44064646252, 124597.51958817478, 128372.72922667614, -0.264, 0.792, 0.53, 192.0, 0.0, 0.0, 0.0, 0.0, 0.0, 0.0, 0.0, 0.0, 0.0, 1.7272859530018015E9, 0.0, 2024-09-25 12:39:13.001
157.0, 135249.24340835135, 187500.0, 155205.86433480555, 141059.2441033416, 66545.3006679178, 117369.74774238441, 124598.90539633101, 128376.46196800018, -0.264, 0.792, 0.53, 192.0, 0.0, 0.0, 0.0, 0.0, 0.0, 0.0, 0.0, 0.0, 0.0, 1.7272859530057957E9, 0.0, 2024-09-25 12:39:13.005
158.0, 135250.2715885963, 187500.0, 155233.4910909523, 141068.92240869076, 66558.711714591, 117375.76036164288, 124603.7110213889, 128379.68061920174, -0.264, 0.792, 0.53, 192.0, 0.0, 0.0, 0.0, 0.0, 0.0, 0.0, 0.0, 0.0, 0.0, 1.727285953011846E9, 0.0, 2024-09-25 12:39:13.011
159.0, 135234.1112773551, 187500.0, 155183.26672116123, 141059.9817109086, 66527.68749328703, 117374.68747790903, 124601.94523357693, 128372.28219178703, -0.264, 0.792, 0.53, 192.0, 0.0, 0.0, 0.0, 0.0, 0.0, 0.0, 0.0, 0.0, 0.0, 1.7272859530147727E9, 0.0, 2024-09-25 12:39:13.014
160.0, 135235.40767853352, 187500.0, 155150.90139518993, 141052.76209744957, 66510.99074017891, 117369.8595011067, 124602.70519288842, 128362.62623818235, -0.264, 0.792, 0.53, 192.0, 0.0, 0.0, 0.0, 0.0, 0.0, 0.0, 0.0, 0.0, 0.0, 1.727285953017786E9, 0.0, 2024-09-25 12:39:13.017
161.0, 135251.3221205857, 187500.0, 155199.96347426935, 141058.6853097302, 66546.15003420711, 117373.704001153, 124600.38061146507, 128371.65634294228, -0.264, 0.792, 0.53, 192.0, 0.0, 0.0, 0.0, 0.0, 0.0, 0.0, 0.0, 0.0, 0.0, 1.727285953021782E9, 0.0, 2024-09-25 12:39:13.021
162.0, 135249.64573975155, 187500.0, 155236.2403555203, 141067.87187670136, 66564.63492687166, 117378.73314365544, 124600.67118414298, 128377.82542441195, -0.266, 0.794, 0.53, 192.0, 247.0, 176.0, 24.0, 208.0, 16.0, 144.0, 0.0, 0.0, 0.0, 1.727285953025821E9, 0.0, 2024-09-25 12:39:13.025
163.0, 135239.85567568013, 187500.0, 155194.37553815552, 141062.1498301208, 66532.35900787819, 117377.14616979912, 124600.87234984308, 128371.61163945337, -0.266, 0.794, 0.53, 192.0, 0.0, 0.0, 0.0, 0.0, 0.0, 0.0, 0.0, 0.0, 0.0, 1.7272859530307677E9, 0.0, 2024-09-25 12:39:13.030
164.0, 135241.7779257033, 187500.0, 155153.94123243587, 141053.5444085055, 66512.26478961286, 117372.8546348637, 124602.10169578812, 128367.58832545142, -0.266, 0.794, 0.53, 192.0, 0.0, 0.0, 0.0, 0.0, 0.0, 0.0, 0.0, 0.0, 0.0, 1.7272859530348587E9, 0.0, 2024-09-25 12:39:13.034
165.0, 135258.00529217784, 187500.0, 155194.01791024423, 141060.786373709, 66546.17238595158, 117375.33567849823, 124605.29799524523, 128379.16652907927, -0.266, 0.794, 0.53, 192.0, 0.0, 0.0, 0.0, 0.0, 0.0, 0.0, 0.0, 0.0, 0.0, 1.727285953037787E9, 0.0, 2024-09-25 12:39:13.037
166.0, 135253.40083282004, 187500.0, 155240.42013173344, 141067.31308308998, 66570.91576706359, 117377.07911456576, 124601.52055043228, 128388.1072268614, -0.266, 0.794, 0.53, 192.0, 0.0, 0.0, 0.0, 0.0, 0.0, 0.0, 0.0, 0.0, 0.0, 1.7272859530428169E9, 0.0, 2024-09-25 12:39:13.042
167.0, 135237.7322599569, 187500.0, 155207.8759918065, 141062.6415684988, 66543.9595632505, 117377.66025992158, 124599.93357657595, 128383.43571227023, -0.266, 0.794, 0.53, 192.0, 0.0, 0.0, 0.0, 0.0, 0.0, 0.0, 0.0, 0.0, 0.0, 1.7272859530458698E9, 0.0, 2024-09-25 12:39:13.045
168.0, 135243.70017572644, 187500.0, 155154.38826732498, 141053.72322246115, 66512.51065880188, 117371.49117845192, 124606.21441676789, 128362.58153469344, -0.266, 0.794, 0.53, 192.0, 0.0, 0.0, 0.0, 0.0, 0.0, 0.0, 0.0, 0.0, 0.0, 1.727285953048842E9, 0.0, 2024-09-25 12:39:13.048
169.0, 135254.2278473649, 187500.0, 155175.60007281305, 141052.15860034927, 66532.87309800067, 117370.08301855125, 124600.62648065407, 128364.97317135015, -0.266, 0.794, 0.53, 192.0, 0.0, 0.0, 0.0, 0.0, 0.0, 0.0, 0.0, 0.0, 0.0, 1.727285953053873E9, 0.0, 2024-09-25 12:39:13.053
170.0, 135254.2725508538, 187500.0, 155228.0819687941, 141059.6017312529, 66562.86913905968, 117370.93238484055, 124594.16682650648, 128372.66217144277, -0.266, 0.794, 0.53, 192.0, 0.0, 0.0, 0.0, 0.0, 0.0, 0.0, 0.0, 0.0, 0.0, 1.7272859530579083E9, 0.0, 2024-09-25 12:39:13.057
171.0, 135243.09667862614, 187500.0, 155209.9770557853, 141060.00406265308, 66545.41242664009, 117371.9605650855, 124595.01619279578, 128368.48239522963, -0.266, 0.794, 0.53, 192.0, 0.0, 0.0, 0.0, 0.0, 0.0, 0.0, 0.0, 0.0, 0.0, 1.7272859530619423E9, 0.0, 2024-09-25 12:39:13.061
172.0, 135237.24052157885, 187500.0, 155156.73520049278, 141048.91759740326, 66512.82358322425, 117365.74678012691, 124595.01619279578, 128360.61458118136, -0.268, 0.798, 0.528, 192.0, 247.0, 160.0, 24.0, 240.0, 16.0, 128.0, 0.0, 0.0, 0.0, 1.7272859530649176E9, 0.0, 2024-09-25 12:39:13.064
173.0, 135251.83621070816, 187500.0, 155168.08988667608, 141051.13042010434, 66526.41344385307, 117367.24434700541, 124595.73144861836, 128369.44352024121, -0.268, 0.798, 0.528, 192.0, 0.0, 0.0, 0.0, 0.0, 0.0, 0.0, 0.0, 0.0, 0.0, 1.7272859530688956E9, 0.0, 2024-09-25 12:39:13.068
174.0, 135259.81578347873, 187500.0, 155217.6437041335, 141059.46762078616, 66556.18596746755, 117366.9537743275, 124596.04437304073, 128364.61554343886, -0.268, 0.798, 0.528, 192.0, 0.0, 0.0, 0.0, 0.0, 0.0, 0.0, 0.0, 0.0, 0.0, 1.7272859530728917E9, 0.0, 2024-09-25 12:39:13.072
175.0, 135245.64477749405, 187500.0, 155218.96245705636, 141061.4345742982, 66549.59220285324, 117371.46882670747, 124594.39034395103, 128366.31427601747, -0.268, 0.798, 0.528, 192.0, 0.0, 0.0, 0.0, 0.0, 0.0, 0.0, 0.0, 0.0, 0.0, 1.727285953076908E9, 0.0, 2024-09-25 12:39:13.076
176.0, 135238.13459135708, 187500.0, 155170.81679949962, 141054.61729223936, 66516.37751059265, 117371.82645461876, 124598.05603004171, 128369.62233419686, -0.268, 0.798, 0.528, 192.0, 0.0, 0.0, 0.0, 0.0, 0.0, 0.0, 0.0, 0.0, 0.0, 1.72728595308192E9, 0.0, 2024-09-25 12:39:13.081
177.0, 135246.33768157216, 187500.0, 155164.3347936076, 141050.66103347077, 66517.33863560422, 117370.17242552906, 124599.39713470903, 128370.11407257487, -0.268, 0.798, 0.528, 192.0, 0.0, 0.0, 0.0, 0.0, 0.0, 0.0, 0.0, 0.0, 0.0, 1.727285953086953E9, 0.0, 2024-09-25 12:39:13.086
178.0, 135257.15592588854, 187500.0, 155221.21998324632, 141061.07694638695, 66559.1587494801, 117374.1063325532, 124601.31938473218, 128380.86526165788, -0.268, 0.798, 0.528, 192.0, 0.0, 0.0, 0.0, 0.0, 0.0, 0.0, 0.0, 0.0, 0.0, 1.727285953091086E9, 0.0, 2024-09-25 12:39:13.091
179.0, 135252.43970780846, 187500.0, 155229.46777695033, 141069.6376645133, 66558.42114191307, 117372.69817265251, 124603.64396615553, 128377.93718313423, -0.268, 0.798, 0.528, 192.0, 0.0, 0.0, 0.0, 0.0, 0.0, 0.0, 0.0, 0.0, 0.0, 1.7272859530950344E9, 0.0, 2024-09-25 12:39:13.095
180.0, 135243.09667862614, 187500.0, 155179.28811064817, 141063.8932661883, 66523.01597869587, 117367.1996435165, 124604.73920163384, 128367.67773242925, -0.268, 0.798, 0.528, 192.0, 0.0, 0.0, 0.0, 0.0, 0.0, 0.0, 0.0, 0.0, 0.0, 1.7272859530979335E9, 0.0, 2024-09-25 12:39:13.097
181.0, 135258.0276439223, 187500.0, 155160.49029356128, 141058.52884751902, 66517.2492286264, 117361.54465216931, 124605.52151268978, 128361.66511317076, -0.268, 0.798, 0.528, 192.0, 0.0, 0.0, 0.0, 0.0, 0.0, 0.0, 0.0, 0.0, 0.0, 1.727285953100964E9, 0.0, 2024-09-25 12:39:13.100
182.0, 135270.79049000627, 187500.0, 155204.85850630506, 141058.0818126299, 66548.58637435274, 117359.51064342388, 124595.46322768489, 128360.72633990365, -0.27, 0.798, 0.53, 192.0, 247.0, 144.0, 24.0, 240.0, 16.0, 144.0, 0.0, 0.0, 0.0, 1.7272859531050255E9, 0.0, 2024-09-25 12:39:13.105
183.0, 135256.86535321063, 187500.0, 155236.12859679802, 141072.47633605913, 66565.84192107223, 117374.46396046448, 124601.22997775437, 128376.52902323354, -0.27, 0.798, 0.53, 192.0, 0.0, 0.0, 0.0, 0.0, 0.0, 0.0, 0.0, 0.0, 0.0, 1.7272859531110084E9, 0.0, 2024-09-25 12:39:13.111
184.0, 135241.68851872545, 187500.0, 155205.3278929386, 141081.37233035234, 66548.47461563046, 117388.88083563815, 124617.07736457317, 128393.71751471967, -0.27, 0.798, 0.53, 192.0, 0.0, 0.0, 0.0, 0.0, 0.0, 0.0, 0.0, 0.0, 0.0, 1.7272859531139665E9, 0.0, 2024-09-25 12:39:13.113
185.0, 135247.81289670622, 187500.0, 155171.26383438872, 141076.3431878499, 66532.49311834492, 117385.23750129194, 124623.89464663205, 128381.71462794718, -0.27, 0.798, 0.53, 192.0, 0.0, 0.0, 0.0, 0.0, 0.0, 0.0, 0.0, 0.0, 0.0, 1.7272859531180584E9, 0.0, 2024-09-25 12:39:13.118
186.0, 135265.78369924828, 187500.0, 155216.74963435528, 141080.59001929642, 66565.35018269422, 117385.57277745877, 124618.2173035404, 128388.1072268614, -0.27, 0.798, 0.53, 192.0, 0.0, 0.0, 0.0, 0.0, 0.0, 0.0, 0.0, 0.0, 0.0, 1.7272859531209543E9, 0.0, 2024-09-25 12:39:13.120
187.0, 135265.58253354818, 187500.0, 155252.6465359505, 141089.21779265616, 66582.40456371363, 117388.97024261598, 124620.83245764166, 128391.61645074088, -0.27, 0.798, 0.53, 192.0, 0.0, 0.0, 0.0, 0.0, 0.0, 0.0, 0.0, 0.0, 0.0, 1.7272859531249895E9, 0.0, 2024-09-25 12:39:13.124
188.0, 135243.25314083733, 187500.0, 155211.2734569637, 141083.74161526462, 66552.6096883547, 117388.88083563815, 124618.8655041296, 128384.799168682, -0.27, 0.798, 0.53, 192.0, 0.0, 0.0, 0.0, 0.0, 0.0, 0.0, 0.0, 0.0, 0.0, 1.7272859531289496E9, 0.0, 2024-09-25 12:39:13.128
189.0, 135240.928559414, 187500.0, 155169.00630819873, 141073.72803374863, 66528.46980434297, 117384.14226581363, 124614.0151755828, 128380.90996514678, -0.27, 0.798, 0.53, 192.0, 0.0, 0.0, 0.0, 0.0, 0.0, 0.0, 0.0, 0.0, 0.0, 1.7272859531329863E9, 0.0, 2024-09-25 12:39:13.132
190.0, 135262.52034455782, 187500.0, 155200.34345392507, 141075.8961529608, 66553.0120197549, 117385.3045565253, 124612.85288487111, 128383.01102912558, -0.27, 0.798, 0.53, 192.0, 0.0, 0.0, 0.0, 0.0, 0.0, 0.0, 0.0, 0.0, 0.0, 1.7272859531379583E9, 0.0, 2024-09-25 12:39:13.137
191.0, 135264.91198121454, 187500.0, 155247.17035855894, 141083.87572573134, 66580.83994160175, 117387.76324841539, 124613.52343720479, 128386.34143904943, -0.27, 0.798, 0.53, 192.0, 0.0, 0.0, 0.0, 0.0, 0.0, 0.0, 0.0, 0.0, 0.0, 1.7272859531419945E9, 0.0, 2024-09-25 12:39:13.141
192.0, 135257.78177473327, 187500.0, 155222.4269774469, 141087.92139147775, 66558.53290063536, 117390.42310600558, 124615.9150738615, 128382.40753202529, -0.27, 0.798, 0.53, 192.0, 0.0, 0.0, 0.0, 0.0, 0.0, 0.0, 0.0, 0.0, 0.0, 1.7272859531460266E9, 0.0, 2024-09-25 12:39:13.146
193.0, 135263.45911782494, 187500.0, 155172.4708285893, 141084.054539687, 66529.94501947702, 117390.53486472784, 124619.53605646326, 128369.89055513032, -0.26, 0.798, 0.534, 192.0, 247.0, 224.0, 24.0, 240.0, 16.0, 176.0, 0.0, 0.0, 0.0, 1.7272859531500454E9, 0.0, 2024-09-25 12:39:13.150
194.0, 135272.31040862924, 187500.0, 155187.33473865208, 141079.4053768403, 66540.89737426012, 117385.99746060342, 124611.57883543716, 128364.81670913896, -0.26, 0.798, 0.534, 192.0, 0.0, 0.0, 0.0, 0.0, 0.0, 0.0, 0.0, 0.0, 0.0, 1.72728595315308E9, 0.0, 2024-09-25 12:39:13.153
195.0, 135271.3269318732, 187500.0, 155246.0527713362, 141088.43548160023, 66576.99544155544, 117391.87596939517, 124608.31548074669, 128381.71462794718, -0.26, 0.798, 0.534, 192.0, 0.0, 0.0, 0.0, 0.0, 0.0, 0.0, 0.0, 0.0, 0.0, 1.727285953157006E9, 0.0, 2024-09-25 12:39:13.157
196.0, 135260.53103930128, 187500.0, 155232.17233802943, 141089.44131010072, 66561.32686869227, 117396.2569113084, 124609.83539936965, 128383.72628494815, -0.26, 0.798, 0.534, 192.0, 0.0, 0.0, 0.0, 0.0, 0.0, 0.0, 0.0, 0.0, 0.0, 1.7272859531630528E9, 0.0, 2024-09-25 12:39:13.163
197.0, 135255.81482122123, 187500.0, 155175.35420362404, 141077.5054785616, 66526.2569816419, 117388.32204202678, 124609.63423366955, 128371.34341851991, -0.26, 0.798, 0.534, 192.0, 0.0, 0.0, 0.0, 0.0, 0.0, 0.0, 0.0, 0.0, 0.0, 1.7272859531659963E9, 0.0, 2024-09-25 12:39:13.165
198.0, 135266.36484460413, 187500.0, 155174.61659605702, 141074.51034480458, 66528.82743225426, 117381.32594601226, 124608.29312900224, 128366.67190392876, -0.26, 0.798, 0.534, 192.0, 0.0, 0.0, 0.0, 0.0, 0.0, 0.0, 0.0, 0.0, 0.0, 1.7272859531700125E9, 0.0, 2024-09-25 12:39:13.170
199.0, 135273.15977491855, 187500.0, 155234.51927119723, 141084.47922283164, 66569.75347635192, 117385.77394315887, 124607.93550109095, 128373.91386913227, -0.26, 0.798, 0.534, 192.0, 0.0, 0.0, 0.0, 0.0, 0.0, 0.0, 0.0, 0.0, 0.0, 1.7272859531740534E9, 0.0, 2024-09-25 12:39:13.174
200.0, 135270.54462081727, 187500.0, 155240.06250382215, 141093.12934793584, 66567.04891527283, 117394.64758570763, 124616.13859130605, 128374.69618018821, -0.26, 0.798, 0.534, 192.0, 0.0, 0.0, 0.0, 0.0, 0.0, 0.0, 0.0, 0.0, 0.0, 1.7272859531771E9, 0.0, 2024-09-25 12:39:13.177
201.0, 135257.53590554427, 187500.0, 155193.61557884404, 141087.38494961083, 66537.63401956964, 117398.91676889859, 124618.2173035404, 128379.12182559037, -0.26, 0.798, 0.534, 192.0, 0.0, 0.0, 0.0, 0.0, 0.0, 0.0, 0.0, 0.0, 0.0, 1.7272859531812582E9, 0.0, 2024-09-25 12:39:13.181
202.0, 135258.31821660022, 187500.0, 155183.49023860577, 141079.047748929, 66538.3045719033, 117397.15098108661, 124613.4116784825, 128388.21898558368, -0.26, 0.798, 0.534, 192.0, 0.0, 0.0, 0.0, 0.0, 0.0, 0.0, 0.0, 0.0, 0.0, 1.7272859531850708E9, 0.0, 2024-09-25 12:39:13.185
203.0, 135269.4270335945, 187500.0, 155238.0955503101, 141084.63568504283, 66575.07319153228, 117398.3579752872, 124609.32130924719, 128398.90311943331, -0.27, 0.794, 0.522, 192.0, 247.0, 144.0, 24.0, 208.0, 16.0, 80.0, 0.0, 0.0, 0.0, 1.727285953189051E9, 0.0, 2024-09-25 12:39:13.189
204.0, 135256.5747805327, 187500.0, 155247.37152425904, 141087.07202518845, 66571.83218858627, 117398.87206540968, 124607.9131493465, 128396.48913103214, -0.27, 0.794, 0.522, 192.0, 0.0, 0.0, 0.0, 0.0, 0.0, 0.0, 0.0, 0.0, 0.0, 1.7272859531930983E9, 0.0, 2024-09-25 12:39:13.193
205.0, 135246.15886761653, 187500.0, 155192.78856429918, 141080.0535774295, 66532.35900787819, 117394.1111438407, 124608.7625156358, 128380.90996514678, -0.27, 0.794, 0.522, 192.0, 0.0, 0.0, 0.0, 0.0, 0.0, 0.0, 0.0, 0.0, 0.0, 1.727285953198151E9, 0.0, 2024-09-25 12:39:13.198
206.0, 135257.04416716626, 187500.0, 155174.16956116792, 141076.9466849502, 66526.74872001991, 117393.32883278475, 124608.89662610253, 128383.34630529242, -0.27, 0.794, 0.522, 192.0, 0.0, 0.0, 0.0, 0.0, 0.0, 0.0, 0.0, 0.0, 0.0, 1.72728595320109E9, 0.0, 2024-09-25 12:39:13.201
207.0, 135264.33083585868, 187500.0, 155215.0285500322, 141077.1478506503, 66557.6164791127, 117387.6067862042, 124604.9627190784, 128381.4017035248, -0.27, 0.794, 0.522, 192.0, 0.0, 0.0, 0.0, 0.0, 0.0, 0.0, 0.0, 0.0, 0.0, 1.7272859532051175E9, 0.0, 2024-09-25 12:39:13.205
208.0, 135254.31725434272, 187500.0, 155239.81663463314, 141079.87476347384, 66571.25104323043, 117387.83030364875, 124603.42044871098, 128382.22871806964, -0.27, 0.794, 0.522, 192.0, 0.0, 0.0, 0.0, 0.0, 0.0, 0.0, 0.0, 0.0, 0.0, 1.7272859532090962E9, 0.0, 2024-09-25 12:39:13.209
209.0, 135237.95577740142, 187500.0, 155197.2812649347, 141070.6434930138, 66541.36676089368, 117385.34926001422, 124598.41365795299, 128382.94397389222, -0.27, 0.794, 0.522, 192.0, 0.0, 0.0, 0.0, 0.0, 0.0, 0.0, 0.0, 0.0, 0.0, 1.7272859532131276E9, 0.0, 2024-09-25 12:39:13.213
210.0, 135251.65739675253, 187500.0, 155160.1773691389, 141067.06721390097, 66521.98779845092, 117382.97997510196, 124607.19789352393, 128374.18209006573, -0.27, 0.794, 0.522, 192.0, 0.0, 0.0, 0.0, 0.0, 0.0, 0.0, 0.0, 0.0, 0.0, 1.7272859532190883E9, 0.0, 2024-09-25 12:39:13.219
211.0, 135268.13063241608, 187500.0, 155203.96443652685, 141074.5550482935, 66556.92357503457, 117382.30942276829, 124609.99186158084, 128379.12182559037, -0.27, 0.794, 0.522, 192.0, 0.0, 0.0, 0.0, 0.0, 0.0, 0.0, 0.0, 0.0, 0.0, 1.727285953227147E9, 0.0, 2024-09-25 12:39:13.227
212.0, 135257.53590554427, 187500.0, 155248.37735275953, 141079.87476347384, 66579.94587182354, 117388.03146934885, 124604.18040802245, 128399.95365142271, -0.27, 0.794, 0.522, 192.0, 0.0, 0.0, 0.0, 0.0, 0.0, 0.0, 0.0, 0.0, 0.0, 1.7272859532301393E9, 0.0, 2024-09-25 12:39:13.230
213.0, 135243.54371351525, 187500.0, 155212.9274860534, 141076.61140878338, 66558.37643842417, 117395.72046944148, 124613.05405057121, 128409.49784630512, -0.27, 0.798, 0.526, 192.0, 247.0, 144.0, 24.0, 240.0, 16.0, 112.0, 0.0, 0.0, 0.0, 1.7272859532331817E9, 0.0, 2024-09-25 12:39:13.233
214.0, 135245.0189286493, 187500.0, 155167.10640992003, 141068.52007729057, 66534.79534802382, 117393.86527465169, 124617.59145469565, 128406.25684335911, -0.27, 0.798, 0.526, 192.0, 0.0, 0.0, 0.0, 0.0, 0.0, 0.0, 0.0, 0.0, 0.0, 1.7272859532371376E9, 0.0, 2024-09-25 12:39:13.237
215.0, 135277.4289581095, 187500.0, 155199.87406729153, 141078.0419204285, 66559.58343262476, 117400.52609449936, 124628.05207110073, 128407.21796837068, -0.27, 0.798, 0.526, 192.0, 0.0, 0.0, 0.0, 0.0, 0.0, 0.0, 0.0, 0.0, 0.0, 1.727285953240184E9, 0.0, 2024-09-25 12:39:13.240
216.0, 135286.5708215917, 187500.0, 155253.22768130634, 141094.64926655882, 66592.79812488535, 117411.38904230465, 124630.64487345754, 128415.66692777479, -0.27, 0.798, 0.526, 192.0, 0.0, 0.0, 0.0, 0.0, 0.0, 0.0, 0.0, 0.0, 0.0, 1.727285953243158E9, 0.0, 2024-09-25 12:39:13.243
217.0, 135277.89834474307, 187500.0, 155234.00518107478, 141098.33730439394, 66574.73791536545, 117420.15092613113, 124634.10939384812, 128417.94680570923, -0.27, 0.798, 0.526, 192.0, 0.0, 0.0, 0.0, 0.0, 0.0, 0.0, 0.0, 0.0, 0.0, 1.7272859532461903E9, 0.0, 2024-09-25 12:39:13.246
218.0, 135275.10437668615, 187500.0, 155183.55729383914, 141092.92818223574, 66546.68647607404, 117420.68736799805, 124639.00442588383, 128411.95653819521, -0.27, 0.798, 0.526, 192.0, 0.0, 0.0, 0.0, 0.0, 0.0, 0.0, 0.0, 0.0, 0.0, 1.7272859532501795E9, 0.0, 2024-09-25 12:39:13.250
219.0, 135276.06550169774, 187500.0, 155195.62723584502, 141084.23335364263, 66555.29189768934, 117412.39487080513, 124621.88298963106, 128420.1596284103, -0.27, 0.798, 0.526, 192.0, 0.0, 0.0, 0.0, 0.0, 0.0, 0.0, 0.0, 0.0, 0.0, 1.7272859532551837E9, 0.0, 2024-09-25 12:39:13.255
220.0, 135278.18891742098, 187500.0, 155247.5503382147, 141088.36842636685, 66582.24810150244, 117406.80693469131, 124614.68572791645, 128421.03134644406, -0.27, 0.798, 0.526, 192.0, 0.0, 0.0, 0.0, 0.0, 0.0, 0.0, 0.0, 0.0, 0.0, 1.7272859532582164E9, 0.0, 2024-09-25 12:39:13.258
221.0, 135257.69236775546, 187500.0, 155243.9964108463, 141091.0506357015, 66573.95560430952, 117410.27145508188, 124611.42237322599, 128426.03813720205, -0.27, 0.798, 0.526, 192.0, 0.0, 0.0, 0.0, 0.0, 0.0, 0.0, 0.0, 0.0, 0.0, 1.7272859532621756E9, 0.0, 2024-09-25 12:39:13.262
222.0, 135249.06459439572, 187500.0, 155186.03833747367, 141077.01374018358, 66539.44451087053, 117400.23552182145, 124612.20468428191, 128412.04594517303, -0.27, 0.798, 0.526, 192.0, 0.0, 0.0, 0.0, 0.0, 0.0, 0.0, 0.0, 0.0, 0.0, 1.7272859532651844E9, 0.0, 2024-09-25 12:39:13.265
223.0, 135256.17244913251, 187500.0, 155178.10346819204, 141064.2955975885, 66541.56792659378, 117387.94206237103, 124609.50012320283, 128397.67377348826, -0.274, 0.796, 0.524, 192.0, 247.0, 112.0, 24.0, 224.0, 16.0, 96.0, 0.0, 0.0, 0.0, 1.7272859532692392E9, 0.0, 2024-09-25 12:39:13.269
224.0, 135257.80412647774, 187500.0, 155228.86427985004, 141063.26741734357, 66572.12276126418, 117381.16948380107, 124603.21928301088, 128396.48913103214, -0.274, 0.796, 0.524, 192.0, 0.0, 0.0, 0.0, 0.0, 0.0, 0.0, 0.0, 0.0, 0.0, 1.7272859532732854E9, 0.0, 2024-09-25 12:39:13.273
225.0, 135250.20453336294, 187500.0, 155235.41334097544, 141071.045824414, 66571.04987753033, 117387.45032399302, 124609.03073656926, 128397.89729093281, -0.274, 0.796, 0.524, 192.0, 0.0, 0.0, 0.0, 0.0, 0.0, 0.0, 0.0, 0.0, 0.0, 1.727285953277289E9, 0.0, 2024-09-25 12:39:13.277
226.0, 135245.28714958276, 187500.0, 155186.50772410724, 141068.81064996848, 66540.22682192645, 117392.43476300655, 124612.45055347093, 128402.12177063487, -0.274, 0.796, 0.524, 192.0, 0.0, 0.0, 0.0, 0.0, 0.0, 0.0, 0.0, 0.0, 0.0, 1.7272859532822337E9, 0.0, 2024-09-25 12:39:13.282
227.0, 135255.61365552113, 187500.0, 155167.1734651534, 141061.65809174278, 66532.80604276729, 117386.73506817044, 124611.93646334845, 128398.16551186627, -0.274, 0.796, 0.524, 192.0, 0.0, 0.0, 0.0, 0.0, 0.0, 0.0, 0.0, 0.0, 0.0, 1.727285953285178E9, 0.0, 2024-09-25 12:39:13.285
228.0, 135265.29196087027, 187500.0, 155223.6786751364, 141070.6434930138, 66573.95560430952, 117392.0547833508, 124612.62936742656, 128407.88852070433, -0.274, 0.796, 0.524, 192.0, 0.0, 0.0, 0.0, 0.0, 0.0, 0.0, 0.0, 0.0, 0.0, 1.7272859532882743E9, 0.0, 2024-09-25 12:39:13.288
229.0, 135258.58643753367, 187500.0, 155246.18688180292, 141079.27126637354, 66582.0692875468, 117396.63689096415, 124617.83732388465, 128414.92932020777, -0.274, 0.796, 0.524, 192.0, 0.0, 0.0, 0.0, 0.0, 0.0, 0.0, 0.0, 0.0, 0.0, 1.7272859532932107E9, 0.0, 2024-09-25 12:39:13.293
230.0, 135251.0315479078, 187500.0, 155199.69525333587, 141075.2479523716, 66548.58637435274, 117394.42406826308, 124618.32906226267, 128406.68152650376, -0.274, 0.796, 0.524, 192.0, 0.0, 0.0, 0.0, 0.0, 0.0, 0.0, 0.0, 0.0, 0.0, 1.7272859532972283E9, 0.0, 2024-09-25 12:39:13.297
231.0, 135250.45040255194, 187500.0, 155171.9790902113, 141064.83203945542, 66533.74481603442, 117389.77490541637, 124610.64006217004, 128410.50367480562, -0.274, 0.796, 0.524, 192.0, 0.0, 0.0, 0.0, 0.0, 0.0, 0.0, 0.0, 0.0, 0.0, 1.7272859533012867E9, 0.0, 2024-09-25 12:39:13.301
232.0, 135263.63793178057, 187500.0, 155213.41922443145, 141068.31891159047, 66566.69128736154, 117388.2549867934, 124613.34462324914, 128411.66596551728, -0.274, 0.796, 0.524, 192.0, 0.0, 0.0, 0.0, 0.0, 0.0, 0.0, 0.0, 0.0, 0.0, 1.7272859533052635E9, 0.0, 2024-09-25 12:39:13.305
233.0, 135258.07234741122, 187500.0, 155245.80690214716, 141073.68333025972, 66584.05859280331, 117394.44642000753, 124614.77513489427, 128419.7125935212, -0.274, 0.796, 0.524, 192.0, 0.0, 0.0, 0.0, 0.0, 0.0, 0.0, 0.0, 0.0, 0.0, 1.727285953309306E9, 0.0, 2024-09-25 12:39:13.309
234.0, 135245.26479783832, 187500.0, 155201.55044812566, 141067.02251041206, 66554.0625517443, 117393.23942580694, 124617.54675120674, 128408.64848001582, -0.272, 0.792, 0.522, 192.0, 247.0, 128.0, 24.0, 192.0, 16.0, 80.0, 0.0, 0.0, 0.0, 1.7272859533132756E9, 0.0, 2024-09-25 12:39:13.313
235.0, 135249.24340835135, 187500.0, 155167.91107272042, 141062.32864407642, 66537.20933642499, 117392.70298394, 124615.73625990585, 128408.62612827137, -0.272, 0.792, 0.522, 192.0, 0.0, 0.0, 0.0, 0.0, 0.0, 0.0, 0.0, 0.0, 0.0, 1.7272859533163064E9, 0.0, 2024-09-25 12:39:13.316
236.0, 135270.65637953955, 187500.0, 155202.04218650368, 141069.86118195788, 66560.38809542515, 117394.62523396316, 124613.5681406937, 128406.07802940346, -0.272, 0.792, 0.522, 192.0, 0.0, 0.0, 0.0, 0.0, 0.0, 0.0, 0.0, 0.0, 0.0, 1.7272859533213432E9, 0.0, 2024-09-25 12:39:13.321
237.0, 135274.21030690795, 187500.0, 155244.66696317995, 141081.64055128582, 66585.31029049281, 117402.04601312232, 124618.75374540732, 128403.52993053556, -0.272, 0.792, 0.522, 192.0, 0.0, 0.0, 0.0, 0.0, 0.0, 0.0, 0.0, 0.0, 0.0, 1.7272859533253567E9, 0.0, 2024-09-25 12:39:13.325
238.0, 135250.74097522986, 187500.0, 155212.45809941986, 141072.83396397042, 66559.60578436921, 117400.70490845501, 124611.1094488036, 128404.31224159148, -0.272, 0.792, 0.522, 192.0, 0.0, 0.0, 0.0, 0.0, 0.0, 0.0, 0.0, 0.0, 0.0, 1.727285953329321E9, 0.0, 2024-09-25 12:39:13.329
239.0, 135249.0198909068, 187500.0, 155162.14432265097, 141059.1323446193, 66528.29099038732, 117391.36187927269, 124601.54290217673, 128400.1101136339, -0.272, 0.792, 0.522, 192.0, 0.0, 0.0, 0.0, 0.0, 0.0, 0.0, 0.0, 0.0, 0.0, 1.727285953333368E9, 0.0, 2024-09-25 12:39:13.333
240.0, 135266.00721669284, 187500.0, 155181.52328509372, 141059.9370074197, 66546.19473769603, 117386.69036468153, 124601.22997775437, 128398.94782292221, -0.272, 0.792, 0.522, 192.0, 0.0, 0.0, 0.0, 0.0, 0.0, 0.0, 0.0, 0.0, 0.0, 1.7272859533393743E9, 0.0, 2024-09-25 12:39:13.339
241.0, 135270.16464116154, 187500.0, 155236.17330028693, 141069.77177498006, 66578.7165258785, 117393.19472231803, 124600.04533529823, 128408.26850036008, -0.272, 0.792, 0.522, 192.0, 0.0, 0.0, 0.0, 0.0, 0.0, 0.0, 0.0, 0.0, 0.0, 1.727285953342347E9, 0.0, 2024-09-25 12:39:13.342
242.0, 135257.89353345556, 187500.0, 155231.41237871794, 141077.1478506503, 66570.49108391894, 117405.57758874627, 124601.96758532138, 128426.39576511334, -0.272, 0.792, 0.522, 192.0, 0.0, 0.0, 0.0, 0.0, 0.0, 0.0, 0.0, 0.0, 0.0, 1.7272859533453405E9, 0.0, 2024-09-25 12:39:13.345
243.0, 135258.2288096224, 187500.0, 155172.89551173395, 141067.2907313455, 66535.01886546837, 117394.02173686288, 124604.8062568672, 128407.84381721543, -0.272, 0.792, 0.522, 192.0, 0.0, 0.0, 0.0, 0.0, 0.0, 0.0, 0.0, 0.0, 0.0, 1.7272859533493304E9, 0.0, 2024-09-25 12:39:13.349
244.0, 135274.94791447496, 187500.0, 155181.4785816048, 141070.48703080261, 66549.81572029779, 117391.76421067289, 124608.94132959144, 128403.35111657991, -0.266, 0.792, 0.526, 192.0, 247.0, 176.0, 24.0, 192.0, 16.0, 112.0, 0.0, 0.0, 0.0, 1.7272859533543696E9, 0.0, 2024-09-25 12:39:13.354
245.0, 135280.89347850007, 187500.0, 155245.98571610282, 141079.2489146291, 66588.19366552755, 117403.09654511172, 124611.66824241499, 128422.59596855594, -0.266, 0.792, 0.526, 192.0, 0.0, 0.0, 0.0, 0.0, 0.0, 0.0, 0.0, 0.0, 0.0, 1.727285953358382E9, 0.0, 2024-09-25 12:39:13.358
246.0, 135265.58253354818, 187500.0, 155237.42499797643, 141077.3937198393, 66574.29088047634, 117403.78944918985, 124606.23676851235, 128423.26652088959, -0.266, 0.792, 0.526, 192.0, 0.0, 0.0, 0.0, 0.0, 0.0, 0.0, 0.0, 0.0, 0.0, 1.727285953361316E9, 0.0, 2024-09-25 12:39:13.361
247.0, 135259.14523114506, 187500.0, 155182.9761484833, 141068.5871325239, 66538.7069033035, 117397.15098108661, 124606.79556212373, 128416.42688708627, -0.266, 0.792, 0.526, 192.0, 0.0, 0.0, 0.0, 0.0, 0.0, 0.0, 0.0, 0.0, 0.0, 1.727285953365358E9, 0.0, 2024-09-25 12:39:13.365
248.0, 135268.82353649422, 187500.0, 155174.05780244563, 141064.8990946888, 66538.97512423697, 117387.6067862042, 124603.48750394434, 128409.16257013829, -0.266, 0.792, 0.526, 192.0, 0.0, 0.0, 0.0, 0.0, 0.0, 0.0, 0.0, 0.0, 0.0, 1.727285953369338E9, 0.0, 2024-09-25 12:39:13.369
249.0, 135270.678731284, 187500.0, 155233.6475531635, 141073.03512967052, 66579.27531948988, 117390.37840251665, 124597.13960851904, 128421.12075342188, -0.266, 0.792, 0.526, 192.0, 0.0, 0.0, 0.0, 0.0, 0.0, 0.0, 0.0, 0.0, 0.0, 1.7272859533763793E9, 0.0, 2024-09-25 12:39:13.376
250.0, 135262.56504804673, 187500.0, 155241.78358814522, 141081.43938558572, 66579.65529914563, 117397.75447818691, 124606.41558246799, 128422.79713425603, -0.266, 0.792, 0.526, 192.0, 0.0, 0.0, 0.0, 0.0, 0.0, 0.0, 0.0, 0.0, 0.0, 1.727285953380384E9, 0.0, 2024-09-25 12:39:13.380
251.0, 135253.55729503123, 187500.0, 155195.85075328956, 141078.22073438414, 66549.81572029779, 117399.92259739907, 124608.82957086916, 128427.98273896966, -0.266, 0.792, 0.526, 192.0, 0.0, 0.0, 0.0, 0.0, 0.0, 0.0, 0.0, 0.0, 0.0, 1.72728595338347E9, 0.0, 2024-09-25 12:39:13.383
252.0, 135259.74872824535, 187500.0, 155171.5320553222, 141068.20715286818, 66539.71273180399, 117390.66897519458, 124607.01907956829, 128420.74077376614, -0.266, 0.792, 0.526, 192.0, 0.0, 0.0, 0.0, 0.0, 0.0, 0.0, 0.0, 0.0, 0.0, 1.7272859533863883E9, 0.0, 2024-09-25 12:39:13.386
253.0, 135278.85946975465, 187500.0, 155218.31425646716, 141075.2926558605, 66575.52022642139, 117392.457114751, 124616.80914363971, 128413.09647716243, -0.266, 0.792, 0.526, 192.0, 0.0, 0.0, 0.0, 0.0, 0.0, 0.0, 0.0, 0.0, 0.0, 1.7272859533893723E9, 0.0, 2024-09-25 12:39:13.389
254.0, 135255.5242485433, 187500.0, 155242.0965125676, 141073.795088982, 66585.73497363746, 117400.23552182145, 124610.72946914786, 128423.78061101206, -0.27, 0.798, 0.532, 192.0, 247.0, 144.0, 24.0, 240.0, 16.0, 160.0, 0.0, 0.0, 0.0, 1.727285953393361E9, 0.0, 2024-09-25 12:39:13.393
255.0, 135243.5213617708, 187500.0, 155196.58836085658, 141063.51328653257, 66553.459054644, 117399.43085902106, 124609.92480634748, 128425.32288137948, -0.27, 0.798, 0.532, 192.0, 0.0, 0.0, 0.0, 0.0, 0.0, 0.0, 0.0, 0.0, 0.0, 1.7272859533963823E9, 0.0, 2024-09-25 12:39:13.396
0.0, 135261.11218465713, 187500.0, 155157.0257731707, 141056.96422540717, 66531.75551077789, 117387.56208271529, 124614.32810000516, 128402.05471540151, -0.27, 0.798, 0.532, 192.0, 0.0, 0.0, 0.0, 0.0, 0.0, 0.0, 0.0, 0.0, 0.0, 1.7272859534004142E9, 0.0, 2024-09-25 12:39:13.400
1.0, 135280.7817197778, 187500.0, 155203.7856225712, 141067.82717321243, 66567.09361876173, 117392.5018182399, 124621.10067857512, 128407.17326488177, -0.27, 0.798, 0.532, 192.0, 0.0, 0.0, 0.0, 0.0, 0.0, 0.0, 0.0, 0.0, 0.0, 1.727285953404499E9, 0.0, 2024-09-25 12:39:13.404
2.0, 135274.54558307477, 187500.0, 155241.56007070065, 141072.38692908132, 66584.23740675896, 117393.9099781406, 124615.08805931665, 128412.47062831768, -0.27, 0.798, 0.532, 192.0, 0.0, 0.0, 0.0, 0.0, 0.0, 0.0, 0.0, 0.0, 0.0, 1.7272859534095857E9, 0.0, 2024-09-25 12:39:13.409
3.0, 135253.7808124758, 187500.0, 155216.7272826108, 141072.0516529145, 66564.94785129403, 117402.85067592272, 124617.41264074, 128434.08476520596, -0.27, 0.798, 0.532, 192.0, 0.0, 0.0, 0.0, 0.0, 0.0, 0.0, 0.0, 0.0, 0.0, 1.7272859534134398E9, 0.0, 2024-09-25 12:39:13.413
4.0, 135251.14330663005, 187500.0, 155179.06459320363, 141067.4024900678, 66543.49017661694, 117405.6669957241, 124626.24157979985, 128436.45405011822, -0.27, 0.798, 0.532, 192.0, 0.0, 0.0, 0.0, 0.0, 0.0, 0.0, 0.0, 0.0, 0.0, 1.727285953417442E9, 0.0, 2024-09-25 12:39:13.417
5.0, 135262.74386200236, 187500.0, 155206.69134935038, 141064.00502491058, 66563.91967104908, 117401.39781253312, 124624.25227454332, 128433.43656461676, -0.27, 0.798, 0.532, 192.0, 0.0, 0.0, 0.0, 0.0, 0.0, 0.0, 0.0, 0.0, 0.0, 1.7272859534204488E9, 0.0, 2024-09-25 12:39:13.420
6.0, 135264.26378062533, 187500.0, 155248.0420765927, 141070.6434930138, 66584.68444164806, 117402.26953056689, 124625.48162048837, 128430.68730004875, -0.27, 0.798, 0.532, 192.0, 0.0, 0.0, 0.0, 0.0, 0.0, 0.0, 0.0, 0.0, 0.0, 1.727285953424505E9, 0.0, 2024-09-25 12:39:13.424
7.0, 135247.58937926166, 187500.0, 155218.1801460004, 141068.2518563571, 66563.00324952642, 117400.6155014772, 124628.54380947874, 128424.98760521265, -0.27, 0.798, 0.532, 192.0, 0.0, 0.0, 0.0, 0.0, 0.0, 0.0, 0.0, 0.0, 0.0, 1.7272859534285183E9, 0.0, 2024-09-25 12:39:13.428
8.0, 135239.18512334648, 187500.0, 155167.39698259794, 141056.5842457514, 66530.81673751077, 117395.87693165266, 124622.79941115373, 128420.29373887704, -0.26, 0.802, 0.532, 192.0, 247.0, 224.0, 25.0, 16.0, 16.0, 160.0, 0.0, 0.0, 0.0, 1.7272859534324644E9, 0.0, 2024-09-25 12:39:13.432
9.0, 135253.04320490875, 187500.0, 155181.14330543796, 141055.26549282856, 66542.21612718298, 117389.37257401618, 124622.93352162046, 128412.06829691748, -0.26, 0.802, 0.532, 192.0, 0.0, 0.0, 0.0, 0.0, 0.0, 0.0, 0.0, 0.0, 0.0, 1.7272859534374516E9, 0.0, 2024-09-25 12:39:13.437
10.0, 135265.22490563692, 187500.0, 155240.71070441135, 141073.86214421538, 66579.5658921678, 117399.49791425442, 124632.61182696962, 128420.22668364368, -0.26, 0.802, 0.532, 192.0, 0.0, 0.0, 0.0, 0.0, 0.0, 0.0, 0.0, 0.0, 0.0, 1.7272859534414523E9, 0.0, 2024-09-25 12:39:13.441
11.0, 135244.6836524825, 187500.0, 155223.27634373622, 141067.35778657888, 66557.08003724576, 117402.60480673371, 124626.93448387797, 128421.25486388861, -0.26, 0.802, 0.532, 192.0, 0.0, 0.0, 0.0, 0.0, 0.0, 0.0, 0.0, 0.0, 0.0, 1.7272859534454987E9, 0.0, 2024-09-25 12:39:13.445
12.0, 135227.69632669643, 187500.0, 155174.50483733474, 141052.71739396066, 66525.47467058596, 117401.21899857749, 124619.08902157415, 128434.6212070729, -0.26, 0.802, 0.532, 192.0, 0.0, 0.0, 0.0, 0.0, 0.0, 0.0, 0.0, 0.0, 0.0, 1.727285953448503E9, 0.0, 2024-09-25 12:39:13.448
13.0, 135242.15790535902, 187500.0, 155170.0791919326, 141050.01283288156, 66523.64182754062, 117388.41144900459, 124624.34168152115, 128417.87975047587, -0.26, 0.802, 0.532, 192.0, 0.0, 0.0, 0.0, 0.0, 0.0, 0.0, 0.0, 0.0, 0.0, 1.727285953452512E9, 0.0, 2024-09-25 12:39:13.452
14.0, 135253.84786770915, 187500.0, 155228.1490240275, 141064.42970805522, 66556.09656048972, 117389.03729784934, 124630.17548682398, 128412.51533180659, -0.26, 0.802, 0.532, 192.0, 0.0, 0.0, 0.0, 0.0, 0.0, 0.0, 0.0, 0.0, 0.0, 1.7272859534566803E9, 0.0, 2024-09-25 12:39:13.456
15.0, 135246.6282542501, 187500.0, 155235.61450667554, 141074.4432895712, 66554.08490348875, 117398.33562354275, 124630.84603915764, 128418.99733769863, -0.26, 0.802, 0.532, 192.0, 0.0, 0.0, 0.0, 0.0, 0.0, 0.0, 0.0, 0.0, 0.0, 1.7272859534605E9, 0.0, 2024-09-25 12:39:13.460
16.0, 135228.45628600792, 187500.0, 155183.31142465014, 141061.21105685367, 66519.7973274943, 117393.61940546268, 124622.6205971981, 128423.82531450098, -0.26, 0.802, 0.532, 192.0, 0.0, 0.0, 0.0, 0.0, 0.0, 0.0, 0.0, 0.0, 0.0, 1.7272859534655151E9, 0.0, 2024-09-25 12:39:13.465
17.0, 135244.75070771584, 187500.0, 155166.8828924755, 141060.11582137537, 66516.42221408155, 117392.0100798619, 124632.12008859159, 128411.62126202838, -0.26, 0.802, 0.532, 192.0, 0.0, 0.0, 0.0, 0.0, 0.0, 0.0, 0.0, 0.0, 0.0, 1.727285953469526E9, 0.0, 2024-09-25 12:39:13.469
18.0, 135253.73610898686, 187500.0, 155229.06544555014, 141075.78439423852, 66559.94106053603, 117405.08585036825, 124636.7692514383, 128432.07310820499, -0.26, 0.802, 0.532, 192.0, 0.0, 0.0, 0.0, 0.0, 0.0, 0.0, 0.0, 0.0, 0.0, 1.7272859534736083E9, 0.0, 2024-09-25 12:39:13.473
19.0, 135233.0607453657, 187500.0, 155245.0469428357, 141077.86310647288, 66561.59508962573, 117409.75736495941, 124630.37665252408, 128448.61339910192, -0.262, 0.794, 0.532, 192.0, 247.0, 208.0, 24.0, 208.0, 16.0, 160.0, 0.0, 0.0, 0.0, 1.7272859534765456E9, 0.0, 2024-09-25 12:39:13.476
20.0, 135224.0082888613, 187500.0, 155196.07427073413, 141067.33543483441, 66527.26281014238, 117405.711699213, 124629.21436181241, 128449.06043399102, -0.262, 0.794, 0.532, 192.0, 0.0, 0.0, 0.0, 0.0, 0.0, 0.0, 0.0, 0.0, 0.0, 1.727285953480606E9, 0.0, 2024-09-25 12:39:13.480
21.0, 135236.99465238984, 187500.0, 155161.65258427293, 141060.71931847566, 66512.06362391278, 117398.02269912038, 124636.74689969384, 128427.28983489155, -0.262, 0.794, 0.532, 192.0, 0.0, 0.0, 0.0, 0.0, 0.0, 0.0, 0.0, 0.0, 0.0, 1.727285953486584E9, 0.0, 2024-09-25 12:39:13.486
22.0, 135253.93727468696, 187500.0, 155203.11507023755, 141070.21880986917, 66546.0606272293, 117396.12280084168, 124641.39606254055, 128412.58238703996, -0.262, 0.794, 0.532, 192.0, 0.0, 0.0, 0.0, 0.0, 0.0, 0.0, 0.0, 0.0, 0.0, 1.7272859534895651E9, 0.0, 2024-09-25 12:39:13.489
23.0, 135243.45430653743, 187500.0, 155243.147044557, 141083.51809782005, 66564.81374082729, 117410.07028938178, 124638.11035610562, 128434.68826230626, -0.262, 0.794, 0.532, 192.0, 0.0, 0.0, 0.0, 0.0, 0.0, 0.0, 0.0, 0.0, 0.0, 1.7272859534925888E9, 0.0, 2024-09-25 12:39:13.492
24.0, 135224.29886153922, 187500.0, 155206.60194237257, 141074.28682736002, 66534.3036096458, 117409.35503355922, 124629.77315542378, 128446.19941070073, -0.262, 0.794, 0.532, 192.0, 0.0, 0.0, 0.0, 0.0, 0.0, 0.0, 0.0, 0.0, 0.0, 1.7272859534976137E9, 0.0, 2024-09-25 12:39:13.497
25.0, 135238.53692275728, 187500.0, 155164.11127616302, 141067.98363542362, 66510.5437052898, 117400.72726019946, 124639.67497821749, 128428.40742211431, -0.262, 0.794, 0.532, 192.0, 0.0, 0.0, 0.0, 0.0, 0.0, 0.0, 0.0, 0.0, 0.0, 1.7272859535016296E9, 0.0, 2024-09-25 12:39:13.501
26.0, 135251.43387930797, 187500.0, 155211.69814010838, 141078.5113070621, 66549.52514761986, 117407.85746668071, 124641.26195207382, 128436.1634774403, -0.262, 0.794, 0.532, 192.0, 0.0, 0.0, 0.0, 0.0, 0.0, 0.0, 0.0, 0.0, 0.0, 1.727285953504573E9, 0.0, 2024-09-25 12:39:13.504
27.0, 135243.29784432624, 187500.0, 155256.96042263036, 141088.92721997824, 66573.24034848694, 117415.97114991798, 124638.64679797254, 128451.18384971427, -0.262, 0.794, 0.532, 192.0, 0.0, 0.0, 0.0, 0.0, 0.0, 0.0, 0.0, 0.0, 0.0, 1.727285953508624E9, 0.0, 2024-09-25 12:39:13.508
28.0, 135226.5116842403, 187500.0, 155213.9780180428, 141078.26543787308, 66538.79631028132, 117409.86912368168, 124632.12008859159, 128442.75724205462, -0.262, 0.794, 0.532, 192.0, 0.0, 0.0, 0.0, 0.0, 0.0, 0.0, 0.0, 0.0, 0.0, 1.7272859535125918E9, 0.0, 2024-09-25 12:39:13.512
29.0, 135226.69049819597, 187500.0, 155157.6739737599, 141063.78150746602, 66505.80513546529, 117395.8545799082, 124630.10843159062, 128416.96332895319, -0.264, 0.8, 0.53, 192.0, 247.0, 192.0, 25.0, 0.0, 16.0, 144.0, 0.0, 0.0, 0.0, 1.727285953516631E9, 0.0, 2024-09-25 12:39:13.516
30.0, 135243.61076874862, 187500.0, 155184.85369501755, 141066.53077203402, 66531.84491775572, 117395.1616758301, 124629.41552751251, 128414.68345101875, -0.264, 0.8, 0.53, 192.0, 0.0, 0.0, 0.0, 0.0, 0.0, 0.0, 0.0, 0.0, 0.0, 1.7272859535216107E9, 0.0, 2024-09-25 12:39:13.521
31.0, 135251.25506535234, 187500.0, 155237.2014805319, 141079.11480416238, 66561.77390358137, 117403.4094695341, 124631.82951591368, 128423.37827961186, -0.264, 0.8, 0.53, 192.0, 0.0, 0.0, 0.0, 0.0, 0.0, 0.0, 0.0, 0.0, 0.0, 1.7272859535256157E9, 0.0, 2024-09-25 12:39:13.525
32.0, 135246.29297808325, 187500.0, 155221.62231464652, 141089.553068823, 66546.21708944048, 117413.78067896137, 124642.58070499668, 128427.9603872252, -0.264, 0.8, 0.53, 192.0, 0.0, 0.0, 0.0, 0.0, 0.0, 0.0, 0.0, 0.0, 0.0, 1.7272859535296745E9, 0.0, 2024-09-25 12:39:13.529
33.0, 135234.5806639887, 187500.0, 155172.00144195574, 141075.78439423852, 66514.52231580285, 117405.80110619082, 124635.74107119335, 128422.95359646721, -0.264, 0.8, 0.53, 192.0, 0.0, 0.0, 0.0, 0.0, 0.0, 0.0, 0.0, 0.0, 0.0, 1.727285953532594E9, 0.0, 2024-09-25 12:39:13.532
34.0, 135243.4766582819, 187500.0, 155184.4290118729, 141070.91171394728, 66526.14522291961, 117398.00034737591, 124628.40969901202, 128416.82921848647, -0.264, 0.8, 0.53, 192.0, 0.0, 0.0, 0.0, 0.0, 0.0, 0.0, 0.0, 0.0, 0.0, 1.7272859535366676E9, 0.0, 2024-09-25 12:39:13.536
35.0, 135247.25410309483, 187500.0, 155239.16843404394, 141080.5006123186, 66561.99742102592, 117401.86719916669, 124630.51076299082, 128420.07022143248, -0.264, 0.8, 0.53, 192.0, 0.0, 0.0, 0.0, 0.0, 0.0, 0.0, 0.0, 0.0, 0.0, 1.727285953540671E9, 0.0, 2024-09-25 12:39:13.540
36.0, 135229.19389357496, 187500.0, 155238.0508468212, 141083.71926352015, 66552.38617091015, 117409.39973704812, 124627.94031237846, 128433.43656461676, -0.264, 0.8, 0.53, 192.0, 0.0, 0.0, 0.0, 0.0, 0.0, 0.0, 0.0, 0.0, 0.0, 1.727285953544662E9, 0.0, 2024-09-25 12:39:13.544
37.0, 135221.39313476006, 187500.0, 155179.10929669254, 141071.55991453648, 66515.28227511434, 117400.10141135471, 124630.35430077963, 128418.14797140933, -0.264, 0.8, 0.53, 192.0, 0.0, 0.0, 0.0, 0.0, 0.0, 0.0, 0.0, 0.0, 0.0, 1.7272859535486732E9, 0.0, 2024-09-25 12:39:13.548
38.0, 135228.25512030782, 187500.0, 155180.89743624895, 141068.92240869076, 66524.93822871902, 117400.81666717729, 124630.62252171309, 128420.8078289995, -0.264, 0.8, 0.53, 192.0, 0.0, 0.0, 0.0, 0.0, 0.0, 0.0, 0.0, 0.0, 0.0, 1.7272859535536685E9, 0.0, 2024-09-25 12:39:13.553
39.0, 135235.49708551134, 187500.0, 155233.11111129654, 141070.82230696946, 66556.90122329012, 117399.6096729767, 124623.96170186541, 128423.9594249677, -0.262, 0.794, 0.526, 192.0, 247.0, 208.0, 24.0, 208.0, 16.0, 112.0, 0.0, 0.0, 0.0, 1.727285953556687E9, 0.0, 2024-09-25 12:39:13.556
40.0, 135228.90332089702, 187500.0, 155242.27532652323, 141079.4500803292, 66558.04116225734, 117409.5114957704, 124629.81785891269, 128433.50361985012, -0.262, 0.794, 0.526, 192.0, 0.0, 0.0, 0.0, 0.0, 0.0, 0.0, 0.0, 0.0, 0.0, 1.7272859535596442E9, 0.0, 2024-09-25 12:39:13.559
41.0, 135213.48061722287, 187500.0, 155186.46302061834, 141073.3480540929, 66523.61947579616, 117405.39877479062, 124635.87518166009, 128425.54639882404, -0.262, 0.794, 0.526, 192.0, 0.0, 0.0, 0.0, 0.0, 0.0, 0.0, 0.0, 0.0, 0.0, 1.7272859535647275E9, 0.0, 2024-09-25 12:39:13.564
42.0, 135227.89749239653, 187500.0, 155165.8323604861, 141069.68236800222, 66518.2997606158, 117395.89928339711, 124640.54669625124, 128407.68735500424, -0.262, 0.794, 0.526, 192.0, 0.0, 0.0, 0.0, 0.0, 0.0, 0.0, 0.0, 0.0, 0.0, 1.7272859535686967E9, 0.0, 2024-09-25 12:39:13.568
43.0, 135239.14041985755, 187500.0, 155229.1325007835, 141077.43842332822, 66561.50568264791, 117405.57758874627, 124637.6186177276, 128427.22277965819, -0.262, 0.794, 0.526, 192.0, 0.0, 0.0, 0.0, 0.0, 0.0, 0.0, 0.0, 0.0, 0.0, 1.727285953572728E9, 0.0, 2024-09-25 12:39:13.572
44.0, 135227.13753308507, 187500.0, 155255.17228307395, 141085.9991414546, 66571.94394730854, 117417.75928947442, 124638.44563227244, 128445.52885836708, -0.262, 0.794, 0.526, 192.0, 0.0, 0.0, 0.0, 0.0, 0.0, 0.0, 0.0, 0.0, 0.0, 1.7272859535766623E9, 0.0, 2024-09-25 12:39:13.576
45.0, 135208.85380612063, 187500.0, 155198.35414866856, 141067.76011797908, 66530.97319972196, 117407.67865272507, 124633.26002755882, 128437.57163734098, -0.262, 0.794, 0.526, 192.0, 0.0, 0.0, 0.0, 0.0, 0.0, 0.0, 0.0, 0.0, 0.0, 1.7272859535817225E9, 0.0, 2024-09-25 12:39:13.581
46.0, 135224.83530340617, 187500.0, 155162.881930218, 141061.8369056984, 66514.65642626959, 117400.70490845501, 124641.84309742965, 128414.72815450767, -0.262, 0.794, 0.526, 192.0, 0.0, 0.0, 0.0, 0.0, 0.0, 0.0, 0.0, 0.0, 0.0, 1.727285953584735E9, 0.0, 2024-09-25 12:39:13.584
47.0, 135238.96160590192, 187500.0, 155207.31719819515, 141070.37527208033, 66550.28510693135, 117403.1636003451, 124644.9723416534, 128414.4599335742, -0.262, 0.794, 0.526, 192.0, 0.0, 0.0, 0.0, 0.0, 0.0, 0.0, 0.0, 0.0, 0.0, 1.7272859535887682E9, 0.0, 2024-09-25 12:39:13.588
48.0, 135224.1647510725, 187500.0, 155250.32195452714, 141081.37233035234, 66571.1616362526, 117421.53673428735, 124642.13367010758, 128443.5172013661, -0.262, 0.794, 0.526, 192.0, 0.0, 0.0, 0.0, 0.0, 0.0, 0.0, 0.0, 0.0, 0.0, 1.7272859535926929E9, 0.0, 2024-09-25 12:39:13.592
49.0, 135209.8596346211, 187500.0, 155209.5300208962, 141075.6949872607, 66539.46686261498, 117423.30252209933, 124644.14532710855, 128447.11583222341, -0.266, 0.8, 0.528, 192.0, 247.0, 176.0, 25.0, 0.0, 16.0, 128.0, 0.0, 0.0, 0.0, 1.7272859535967555E9, 0.0, 2024-09-25 12:39:13.596
50.0, 135214.5087974678, 187500.0, 155164.93829070788, 141065.56964702246, 66514.9022954586, 117412.61838824968, 124642.20072534094, 128434.64355881735, -0.266, 0.8, 0.528, 192.0, 0.0, 0.0, 0.0, 0.0, 0.0, 0.0, 0.0, 0.0, 0.0, 1.7272859536007607E9, 0.0, 2024-09-25 12:39:13.600
51.0, 135236.74878320083, 187500.0, 155201.19282021438, 141068.9447604352, 66545.3006679178, 117409.55619925931, 124642.84892593014, 128430.68730004875, -0.266, 0.8, 0.528, 192.0, 0.0, 0.0, 0.0, 0.0, 0.0, 0.0, 0.0, 0.0, 0.0, 1.7272859536047685E9, 0.0, 2024-09-25 12:39:13.604
52.0, 135237.95577740142, 187500.0, 155246.41039924746, 141078.1536791508, 66571.29574671933, 117417.49106854094, 124640.59139974015, 128440.58912284246, -0.266, 0.8, 0.528, 192.0, 0.0, 0.0, 0.0, 0.0, 0.0, 0.0, 0.0, 0.0, 0.0, 1.7272859536097693E9, 0.0, 2024-09-25 12:39:13.609
53.0, 135227.42810576299, 187500.0, 155216.21319248836, 141075.4938215606, 66543.91485976159, 117416.30642608482, 124639.22794332838, 128437.68339606326, -0.266, 0.8, 0.528, 192.0, 0.0, 0.0, 0.0, 0.0, 0.0, 0.0, 0.0, 0.0, 0.0, 1.727285953612831E9, 0.0, 2024-09-25 12:39:13.612
54.0, 135225.39409701756, 187500.0, 155169.1851221544, 141063.4462312992, 66515.28227511434, 117406.15873410211, 124638.33387355017, 128428.27331164759, -0.266, 0.8, 0.528, 192.0, 0.0, 0.0, 0.0, 0.0, 0.0, 0.0, 0.0, 0.0, 0.0, 1.7272859536157854E9, 0.0, 2024-09-25 12:39:13.615
55.0, 135241.30853906972, 187500.0, 155189.77107879773, 141058.90882717478, 66532.20254566701, 117398.02269912038, 124632.70123394743, 128421.03134644406, -0.266, 0.8, 0.528, 192.0, 0.0, 0.0, 0.0, 0.0, 0.0, 0.0, 0.0, 0.0, 0.0, 1.7272859536209135E9, 0.0, 2024-09-25 12:39:13.620
56.0, 135246.6282542501, 187500.0, 155244.3540387576, 141074.040958171, 66564.56787163828, 117405.89051316865, 124633.08121360317, 128429.43560235926, -0.266, 0.8, 0.528, 192.0, 0.0, 0.0, 0.0, 0.0, 0.0, 0.0, 0.0, 0.0, 0.0, 1.7272859536247628E9, 0.0, 2024-09-25 12:39:13.624
57.0, 135223.38244001658, 187500.0, 155231.5911926736, 141079.1595076513, 66550.2627551869, 117413.89243768364, 124628.40969901202, 128442.71253856571, -0.266, 0.8, 0.528, 192.0, 0.0, 0.0, 0.0, 0.0, 0.0, 0.0, 0.0, 0.0, 0.0, 1.7272859536287572E9, 0.0, 2024-09-25 12:39:13.628
58.0, 135214.0617625787, 187500.0, 155179.42222111492, 141065.25672260008, 66517.0033594374, 117404.59411199024, 124625.72748967737, 128437.6163408299, -0.266, 0.8, 0.528, 192.0, 0.0, 0.0, 0.0, 0.0, 0.0, 0.0, 0.0, 0.0, 0.0, 1.7272859536338248E9, 0.0, 2024-09-25 12:39:13.633
59.0, 135235.1171058556, 187500.0, 155187.64766307446, 141065.03320515552, 66527.79925200931, 117398.04505086484, 124628.83438215667, 128428.69799479224, -0.266, 0.8, 0.528, 192.0, 0.0, 0.0, 0.0, 0.0, 0.0, 0.0, 0.0, 0.0, 0.0, 1.7272859536378565E9, 0.0, 2024-09-25 12:39:13.637
60.0, 135249.35516707363, 187500.0, 155247.93031787043, 141079.91946696275, 66565.81956932778, 117404.16942884559, 124634.57878048168, 128433.97300648368, -0.266, 0.794, 0.522, 192.0, 247.0, 176.0, 24.0, 208.0, 16.0, 80.0, 0.0, 0.0, 0.0, 1.7272859536407883E9, 0.0, 2024-09-25 12:39:13.640
61.0, 135235.89941691153, 187500.0, 155241.2024427894, 141082.06523443048, 66555.89539478962, 117407.54454225833, 124639.5185160063, 128427.1110209359, -0.266, 0.794, 0.522, 192.0, 0.0, 0.0, 0.0, 0.0, 0.0, 0.0, 0.0, 0.0, 0.0, 1.7272859536438317E9, 0.0, 2024-09-25 12:39:13.643
62.0, 135224.83530340617, 187500.0, 155191.91684626543, 141073.81744072647, 66527.41927235357, 117407.70100446952, 124637.19393458295, 128428.02744245857, -0.266, 0.794, 0.522, 192.0, 0.0, 0.0, 0.0, 0.0, 0.0, 0.0, 0.0, 0.0, 0.0, 1.7272859536487904E9, 0.0, 2024-09-25 12:39:13.648
63.0, 135232.94898664343, 187500.0, 155186.91005550744, 141066.91075168978, 66526.9051822311, 117400.90607415511, 124630.77898392428, 128425.99343371314, -0.266, 0.794, 0.522, 192.0, 0.0, 0.0, 0.0, 0.0, 0.0, 0.0, 0.0, 0.0, 0.0, 1.7272859536528668E9, 0.0, 2024-09-25 12:39:13.652
64.0, 135246.40473680553, 187500.0, 155242.96823060134, 141076.32083610544, 66564.03142977136, 117403.47652476747, 124633.39413802554, 128424.808791257, -0.266, 0.794, 0.522, 192.0, 0.0, 0.0, 0.0, 0.0, 0.0, 0.0, 0.0, 0.0, 0.0, 1.7272859536568112E9, 0.0, 2024-09-25 12:39:13.656
65.0, 135234.04422212174, 187500.0, 155254.72524818484, 141082.82519374194, 66566.19954898352, 117411.32198707128, 124633.10356534763, 128430.79905877104, -0.266, 0.794, 0.522, 192.0, 0.0, 0.0, 0.0, 0.0, 0.0, 0.0, 0.0, 0.0, 0.0, 1.7272859536609125E9, 0.0, 2024-09-25 12:39:13.660
66.0, 135226.44462900696, 187500.0, 155201.66220684795, 141076.76787099458, 66534.52712709036, 117410.85260043772, 124637.77507993879, 128421.70189877773, -0.266, 0.794, 0.522, 192.0, 0.0, 0.0, 0.0, 0.0, 0.0, 0.0, 0.0, 0.0, 0.0, 1.727285953664918E9, 0.0, 2024-09-25 12:39:13.664
67.0, 135229.99855637533, 187500.0, 155191.46981137633, 141074.1527168933, 66541.61263008269, 117419.14509763064, 124642.20072534094, 128437.05754721852, -0.266, 0.794, 0.522, 192.0, 0.0, 0.0, 0.0, 0.0, 0.0, 0.0, 0.0, 0.0, 0.0, 1.727285953667898E9, 0.0, 2024-09-25 12:39:13.667
68.0, 135238.08988786818, 187500.0, 155238.6990474104, 141076.18672563872, 66573.24034848694, 117415.90409468462, 124638.0656526167, 128437.86221001891, -0.266, 0.794, 0.522, 192.0, 0.0, 0.0, 0.0, 0.0, 0.0, 0.0, 0.0, 0.0, 0.0, 1.7272859536719136E9, 0.0, 2024-09-25 12:39:13.671
69.0, 135227.3610505296, 187500.0, 155261.87780641054, 141077.23725762812, 66578.42595320058, 117416.03820515136, 124632.74593743634, 128445.77472755608, -0.266, 0.794, 0.522, 192.0, 0.0, 0.0, 0.0, 0.0, 0.0, 0.0, 0.0, 0.0, 0.0, 1.7272859536769369E9, 0.0, 2024-09-25 12:39:13.676
70.0, 135217.54863471375, 187500.0, 155206.66899760594, 141064.7426324776, 66535.10827244619, 117403.47652476747, 124633.28237930327, 128425.88167499086, -0.268, 0.794, 0.524, 192.0, 247.0, 160.0, 24.0, 208.0, 16.0, 96.0, 0.0, 0.0, 0.0, 1.727285953680946E9, 0.0, 2024-09-25 12:39:13.680
71.0, 135220.58847195967, 187500.0, 155165.6758982749, 141051.10806835987, 66515.63990302561, 117385.7068879255, 124636.32221654919, 128399.6630787448, -0.268, 0.794, 0.524, 192.0, 0.0, 0.0, 0.0, 0.0, 0.0, 0.0, 0.0, 0.0, 0.0, 1.727285953684936E9, 0.0, 2024-09-25 12:39:13.684
72.0, 135240.7720972028, 187500.0, 155215.00619828777, 141064.3850045663, 66555.20249071151, 117395.34048978574, 124641.88780091856, 128407.66500325978, -0.268, 0.794, 0.524, 192.0, 0.0, 0.0, 0.0, 0.0, 0.0, 0.0, 0.0, 0.0, 0.0, 1.7272859536889336E9, 0.0, 2024-09-25 12:39:13.688
73.0, 135236.50291401183, 187500.0, 155251.37248651654, 141073.8397924709, 66575.4084676991, 117406.00227189092, 124641.88780091856, 128417.6562330313, -0.268, 0.794, 0.524, 192.0, 0.0, 0.0, 0.0, 0.0, 0.0, 0.0, 0.0, 0.0, 0.0, 1.7272859536919599E9, 0.0, 2024-09-25 12:39:13.691
74.0, 135220.5214167263, 187500.0, 155215.20736398787, 141069.7047197467, 66548.8098917973, 117409.98088240396, 124642.20072534094, 128426.84280000244, -0.268, 0.794, 0.524, 192.0, 0.0, 0.0, 0.0, 0.0, 0.0, 0.0, 0.0, 0.0, 0.0, 1.7272859536959176E9, 0.0, 2024-09-25 12:39:13.695
75.0, 135220.02967834828, 187500.0, 155169.81097099913, 141062.46275454317, 66525.27350488586, 117403.85650442321, 124640.65845497353, 128415.64457603033, -0.268, 0.794, 0.524, 192.0, 0.0, 0.0, 0.0, 0.0, 0.0, 0.0, 0.0, 0.0, 0.0, 1.7272859536998956E9, 0.0, 2024-09-25 12:39:13.699
76.0, 135233.664242466, 187500.0, 155202.82449755963, 141068.02833891253, 66553.36964766617, 117403.05184162282, 124638.55739099473, 128419.9137592213, -0.268, 0.794, 0.524, 192.0, 0.0, 0.0, 0.0, 0.0, 0.0, 0.0, 0.0, 0.0, 0.0, 1.7272859537059288E9, 0.0, 2024-09-25 12:39:13.705
77.0, 135233.19485583244, 187500.0, 155252.73594292832, 141078.73482450662, 66579.83411310126, 117412.52898127187, 124636.18810608247, 128438.24218967465, -0.268, 0.794, 0.524, 192.0, 0.0, 0.0, 0.0, 0.0, 0.0, 0.0, 0.0, 0.0, 0.0, 1.7272859537089815E9, 0.0, 2024-09-25 12:39:13.708
78.0, 135214.2629282788, 187500.0, 155221.2423349908, 141071.6493215143, 66549.77101680887, 117409.7126614705, 124628.96849262339, 128437.30341640752, -0.268, 0.794, 0.524, 192.0, 0.0, 0.0, 0.0, 0.0, 0.0, 0.0, 0.0, 0.0, 0.0, 1.7272859537131157E9, 0.0, 2024-09-25 12:39:13.713
79.0, 135213.8158933897, 187500.0, 155168.29105237618, 141060.80872545348, 66516.73513850394, 117397.12862934216, 124626.84507690014, 128425.52404707958, -0.268, 0.794, 0.524, 192.0, 0.0, 0.0, 0.0, 0.0, 0.0, 0.0, 0.0, 0.0, 0.0, 1.7272859537170272E9, 0.0, 2024-09-25 12:39:13.717
80.0, 135229.9091493975, 187500.0, 155189.86048577554, 141063.8485626994, 66538.28222015884, 117394.8040479188, 124625.45926874391, 128423.02065170059, -0.268, 0.798, 0.528, 192.0, 247.0, 160.0, 24.0, 240.0, 16.0, 128.0, 0.0, 0.0, 0.0, 1.727285953719966E9, 0.0, 2024-09-25 12:39:13.719
81.0, 135229.5738732307, 187500.0, 155247.5950417036, 141075.73969074961, 66571.98865079744, 117401.9119026556, 124622.0171000978, 128437.23636117416, -0.268, 0.798, 0.528, 192.0, 0.0, 0.0, 0.0, 0.0, 0.0, 0.0, 0.0, 0.0, 0.0, 1.727285953724046E9, 0.0, 2024-09-25 12:39:13.724
82.0, 135220.38730625957, 187500.0, 155229.82540486162, 141080.0982809184, 66551.78267380985, 117406.47165852448, 124625.52632397728, 128431.78253552706, -0.268, 0.798, 0.528, 192.0, 0.0, 0.0, 0.0, 0.0, 0.0, 0.0, 0.0, 0.0, 0.0, 1.7272859537279673E9, 0.0, 2024-09-25 12:39:13.727
83.0, 135217.97331785838, 187500.0, 155178.17052342542, 141073.68333025972, 66519.77497574985, 117405.42112653508, 124626.55450422222, 128426.61928255789, -0.268, 0.798, 0.528, 192.0, 0.0, 0.0, 0.0, 0.0, 0.0, 0.0, 0.0, 0.0, 0.0, 1.7272859537320328E9, 0.0, 2024-09-25 12:39:13.732
84.0, 135233.48542851038, 187500.0, 155183.26672116123, 141074.26447561558, 66530.28029564384, 117404.6164637347, 124633.86352465911, 128418.10326792042, -0.268, 0.798, 0.528, 192.0, 0.0, 0.0, 0.0, 0.0, 0.0, 0.0, 0.0, 0.0, 0.0, 1.7272859537370865E9, 0.0, 2024-09-25 12:39:13.737
85.0, 135239.09571636864, 187500.0, 155245.896309125, 141086.9602664662, 66570.66989787458, 117412.57368476078, 124637.43980377195, 128422.12658192238, -0.268, 0.798, 0.528, 192.0, 0.0, 0.0, 0.0, 0.0, 0.0, 0.0, 0.0, 0.0, 0.0, 1.7272859537410471E9, 0.0, 2024-09-25 12:39:13.741
86.0, 135223.3153847832, 187500.0, 155247.12565507003, 141091.49767059062, 66564.90314780512, 117418.47454529698, 124633.88587640357, 128428.74269828114, -0.268, 0.798, 0.528, 192.0, 0.0, 0.0, 0.0, 0.0, 0.0, 0.0, 0.0, 0.0, 0.0, 1.7272859537450328E9, 0.0, 2024-09-25 12:39:13.745
87.0, 135222.04133534926, 187500.0, 155196.16367771194, 141084.18865015372, 66534.03538871233, 117419.83800170875, 124637.55156249423, 128427.28983489155, -0.268, 0.798, 0.528, 192.0, 0.0, 0.0, 0.0, 0.0, 0.0, 0.0, 0.0, 0.0, 0.0, 1.7272859537479603E9, 0.0, 2024-09-25 12:39:13.747
88.0, 135228.3668790301, 187500.0, 155188.34056715257, 141076.052615172, 66537.87988875865, 117415.39000456214, 124636.83630667167, 128428.29566339204, -0.268, 0.798, 0.528, 192.0, 0.0, 0.0, 0.0, 0.0, 0.0, 0.0, 0.0, 0.0, 0.0, 1.7272859537519956E9, 0.0, 2024-09-25 12:39:13.751
89.0, 135235.2735680668, 187500.0, 155238.9449165994, 141080.36650185188, 66572.25687173092, 117414.92061792858, 124635.36109153762, 128428.78740177005, -0.268, 0.798, 0.528, 192.0, 0.0, 0.0, 0.0, 0.0, 0.0, 0.0, 0.0, 0.0, 0.0, 1.7272859537560177E9, 0.0, 2024-09-25 12:39:13.756
90.0, 135225.90818714, 187500.0, 155252.80299816167, 141087.51906007755, 66576.6601653886, 117422.29669359884, 124636.09869910464, 128437.01284372961, -0.264, 0.794, 0.528, 192.0, 247.0, 192.0, 24.0, 208.0, 16.0, 128.0, 0.0, 0.0, 0.0, 1.727285953760055E9, 0.0, 2024-09-25 12:39:13.760
91.0, 135209.39024798755, 187500.0, 155199.24821844677, 141077.1478506503, 66541.52322310487, 117416.01585340689, 124635.27168455979, 128432.09545994944, -0.264, 0.794, 0.528, 192.0, 0.0, 0.0, 0.0, 0.0, 0.0, 0.0, 0.0, 0.0, 0.0, 1.727285953765005E9, 0.0, 2024-09-25 12:39:13.765
92.0, 135214.0170590898, 187500.0, 155177.2764536472, 141068.76594647957, 66531.26377239988, 117411.36669056019, 124635.40579502653, 128431.98370122716, -0.264, 0.794, 0.528, 192.0, 0.0, 0.0, 0.0, 0.0, 0.0, 0.0, 0.0, 0.0, 0.0, 1.727285953768978E9, 0.0, 2024-09-25 12:39:13.768
93.0, 135233.15015234353, 187500.0, 155227.36671297153, 141073.45981281518, 66565.26077571641, 117410.94200741554, 124634.89170490405, 128434.2188756727, -0.264, 0.794, 0.528, 192.0, 0.0, 0.0, 0.0, 0.0, 0.0, 0.0, 0.0, 0.0, 0.0, 1.7272859537730434E9, 0.0, 2024-09-25 12:39:13.773
94.0, 135228.18806507447, 187500.0, 155250.81369290515, 141080.38885359632, 66576.2131304995, 117417.20049586303, 124630.42135601299, 128441.59495134294, -0.264, 0.794, 0.528, 192.0, 0.0, 0.0, 0.0, 0.0, 0.0, 0.0, 0.0, 0.0, 0.0, 1.7272859537760448E9, 0.0, 2024-09-25 12:39:13.776
95.0, 135204.94225084095, 187500.0, 155204.0761952491, 141069.88353370232, 66544.16072895059, 117414.25006559493, 124623.76053616531, 128445.4170996448, -0.264, 0.794, 0.528, 192.0, 0.0, 0.0, 0.0, 0.0, 0.0, 0.0, 0.0, 0.0, 0.0, 1.7272859537800713E9, 0.0, 2024-09-25 12:39:13.780
96.0, 135201.99182057285, 187500.0, 155161.9208052064, 141055.55606550648, 66518.0985949157, 117403.38711778965, 124620.5195332193, 128432.78836402755, -0.264, 0.794, 0.528, 192.0, 0.0, 0.0, 0.0, 0.0, 0.0, 0.0, 0.0, 0.0, 0.0, 1.7272859537840688E9, 0.0, 2024-09-25 12:39:13.784
97.0, 135222.98010861638, 187500.0, 155194.75551781125, 141058.01475739657, 66543.3560661502, 117400.34728054372, 124622.08415533116, 128420.65136678833, -0.264, 0.794, 0.528, 192.0, 0.0, 0.0, 0.0, 0.0, 0.0, 0.0, 0.0, 0.0, 0.0, 1.7272859537880535E9, 0.0, 2024-09-25 12:39:13.788
98.0, 135225.19293131746, 187500.0, 155237.06737006514, 141068.296559846, 66568.43472342906, 117411.00906264891, 124619.53605646326, 128433.07893670547, -0.264, 0.794, 0.528, 192.0, 0.0, 0.0, 0.0, 0.0, 0.0, 0.0, 0.0, 0.0, 0.0, 1.7272859537930386E9, 0.0, 2024-09-25 12:39:13.793
99.0, 135215.1122945681, 187500.0, 155204.54558188267, 141068.18480112372, 66544.6524673286, 117413.24423709443, 124617.92673086247, 128434.30828265051, -0.264, 0.794, 0.528, 192.0, 0.0, 0.0, 0.0, 0.0, 0.0, 0.0, 0.0, 0.0, 0.0, 1.7272859537970796E9, 0.0, 2024-09-25 12:39:13.797
100.0, 135214.77701840128, 187500.0, 155167.44168608688, 141065.8378679559, 66521.58546705073, 117410.98671090446, 124619.20078029642, 128432.85541926092, -0.264, 0.794, 0.528, 192.0, 0.0, 0.0, 0.0, 0.0, 0.0, 0.0, 0.0, 0.0, 0.0, 1.7272859538010244E9, 0.0, 2024-09-25 12:39:13.801
101.0, 135230.3785360311, 187500.0, 155199.44938414686, 141068.96711217967, 66543.57958359475, 117409.22092309248, 124620.5642367082, 128428.3180151365, -0.268, 0.79, 0.526, 192.0, 247.0, 160.0, 24.0, 176.0, 16.0, 112.0, 0.0, 0.0, 0.0, 1.7272859538040972E9, 0.0, 2024-09-25 12:39:13.804
102.0, 135236.65937622302, 187500.0, 155247.66209693695, 141076.92433320574, 66570.26756647439, 117412.68544348306, 124622.33002452017, 128429.0109192146, -0.268, 0.79, 0.526, 192.0, 0.0, 0.0, 0.0, 0.0, 0.0, 0.0, 0.0, 0.0, 0.0, 1.7272859538081155E9, 0.0, 2024-09-25 12:39:13.808
103.0, 135229.03743136377, 187500.0, 155234.02753281922, 141082.9593042087, 66556.90122329012, 117423.79426047734, 124627.64973970053, 128440.58912284246, -0.268, 0.79, 0.526, 192.0, 0.0, 0.0, 0.0, 0.0, 0.0, 0.0, 0.0, 0.0, 0.0, 1.7272859538121336E9, 0.0, 2024-09-25 12:39:13.812
104.0, 135218.12978006958, 187500.0, 155181.85856126054, 141065.05555689998, 66522.47953682895, 117412.97601616097, 124618.8655041296, 128433.43656461676, -0.268, 0.79, 0.526, 192.0, 0.0, 0.0, 0.0, 0.0, 0.0, 0.0, 0.0, 0.0, 0.0, 1.7272859538160725E9, 0.0, 2024-09-25 12:39:13.816
105.0, 135227.04812610723, 187500.0, 155189.68167181988, 141062.66392024327, 66533.56600207878, 117403.4094695341, 124615.73625990585, 128420.11492492139, -0.268, 0.79, 0.526, 192.0, 0.0, 0.0, 0.0, 0.0, 0.0, 0.0, 0.0, 0.0, 0.0, 1.7272859538211064E9, 0.0, 2024-09-25 12:39:13.821
106.0, 135233.99951863283, 187500.0, 155243.01293409025, 141078.89128671782, 66567.20537748402, 117407.87981842516, 124616.65268142852, 128422.48420983365, -0.268, 0.79, 0.526, 192.0, 0.0, 0.0, 0.0, 0.0, 0.0, 0.0, 0.0, 0.0, 0.0, 1.7272859538251016E9, 0.0, 2024-09-25 12:39:13.825
107.0, 135224.03064060578, 187500.0, 155234.3404572416, 141084.38981585382, 66556.63300235666, 117417.24519935194, 124620.7654024083, 128433.30245415002, -0.268, 0.79, 0.526, 192.0, 0.0, 0.0, 0.0, 0.0, 0.0, 0.0, 0.0, 0.0, 0.0, 1.7272859538281627E9, 0.0, 2024-09-25 12:39:13.828
108.0, 135221.10256208212, 187500.0, 155180.76332578223, 141073.23629537062, 66523.97710370745, 117412.57368476078, 124625.03458559926, 128426.50752383561, -0.268, 0.79, 0.526, 192.0, 0.0, 0.0, 0.0, 0.0, 0.0, 0.0, 0.0, 0.0, 0.0, 1.7272859538331935E9, 0.0, 2024-09-25 12:39:13.833
109.0, 135225.08117259518, 187500.0, 155184.49606710626, 141069.1459261353, 66534.32596139026, 117406.22578933547, 124624.18521930996, 128426.64163430234, -0.268, 0.79, 0.526, 192.0, 0.0, 0.0, 0.0, 0.0, 0.0, 0.0, 0.0, 0.0, 0.0, 1.727285953836156E9, 0.0, 2024-09-25 12:39:13.836
110.0, 135221.8178179047, 187500.0, 155246.72332366984, 141080.6123710409, 66576.23548224395, 117411.99253940494, 124624.02875709877, 128445.70767232272, -0.268, 0.79, 0.526, 192.0, 0.0, 0.0, 0.0, 0.0, 0.0, 0.0, 0.0, 0.0, 0.0, 1.7272859538401704E9, 0.0, 2024-09-25 12:39:13.840
111.0, 135215.84990213515, 187500.0, 155248.13148357053, 141090.44713860122, 66573.12858976467, 117420.44149880904, 124632.05303335823, 128444.99241650014, -0.27, 0.788, 0.524, 192.0, 247.0, 144.0, 24.0, 160.0, 16.0, 96.0, 0.0, 0.0, 0.0, 1.7272859538441784E9, 0.0, 2024-09-25 12:39:13.844
112.0, 135195.04042804724, 187500.0, 155195.00138700026, 141076.67846401673, 66538.77395853687, 117419.88270519767, 124625.6157309551, 128447.22759094568, -0.27, 0.788, 0.524, 192.0, 0.0, 0.0, 0.0, 0.0, 0.0, 0.0, 0.0, 0.0, 0.0, 1.7272859538481545E9, 0.0, 2024-09-25 12:39:13.848
113.0, 135208.78675088726, 187500.0, 155174.6836512904, 141062.5968650099, 66526.56990606427, 117402.5153997559, 124620.25131228582, 128433.70478555022, -0.27, 0.788, 0.524, 192.0, 0.0, 0.0, 0.0, 0.0, 0.0, 0.0, 0.0, 0.0, 0.0, 1.727285953853129E9, 0.0, 2024-09-25 12:39:13.853
114.0, 135229.68563195298, 187500.0, 155225.55622167067, 141073.549219793, 66561.72920009246, 117402.00130963342, 124625.34751002163, 128424.02648020108, -0.27, 0.788, 0.524, 192.0, 0.0, 0.0, 0.0, 0.0, 0.0, 0.0, 0.0, 0.0, 0.0, 1.7272859538561692E9, 0.0, 2024-09-25 12:39:13.856
115.0, 135216.5204544688, 187500.0, 155250.47841673833, 141083.71926352015, 66575.20730199902, 117417.96045517451, 124626.35333852212, 128444.63478858887, -0.27, 0.788, 0.524, 192.0, 0.0, 0.0, 0.0, 0.0, 0.0, 0.0, 0.0, 0.0, 0.0, 1.7272859538611631E9, 0.0, 2024-09-25 12:39:13.861
116.0, 135191.53120416775, 187500.0, 155194.04026198867, 141065.9049231893, 66534.16949917907, 117408.05863238081, 124616.02683258377, 128438.35394839692, -0.27, 0.788, 0.524, 192.0, 0.0, 0.0, 0.0, 0.0, 0.0, 0.0, 0.0, 0.0, 0.0, 1.7272859538651965E9, 0.0, 2024-09-25 12:39:13.865
117.0, 135198.28143099326, 187500.0, 155161.7196395063, 141062.1498301208, 66520.57963855025, 117401.84484742224, 124623.17939080947, 128416.7621632531, -0.27, 0.788, 0.524, 192.0, 0.0, 0.0, 0.0, 0.0, 0.0, 0.0, 0.0, 0.0, 0.0, 1.7272859538712344E9, 0.0, 2024-09-25 12:39:13.871
118.0, 135210.37372474358, 187500.0, 155217.39783494448, 141078.2430861286, 66561.61744137018, 117410.78554520436, 124630.60016996863, 128416.69510801973, -0.27, 0.788, 0.524, 192.0, 0.0, 0.0, 0.0, 0.0, 0.0, 0.0, 0.0, 0.0, 0.0, 1.7272859538742328E9, 0.0, 2024-09-25 12:39:13.874
119.0, 135200.1589775275, 187500.0, 155250.59017546062, 141084.36746410935, 66574.96143281, 117418.25102785243, 124620.65364368602, 128423.08770693395, -0.27, 0.788, 0.524, 192.0, 0.0, 0.0, 0.0, 0.0, 0.0, 0.0, 0.0, 0.0, 0.0, 1.727285953877158E9, 0.0, 2024-09-25 12:39:13.877
120.0, 135186.88204132105, 187500.0, 155196.40954690095, 141070.6434930138, 66536.09174920223, 117410.09264112623, 124614.70807966091, 128406.68152650376, -0.27, 0.788, 0.524, 192.0, 0.0, 0.0, 0.0, 0.0, 0.0, 0.0, 0.0, 0.0, 0.0, 1.7272859538811796E9, 0.0, 2024-09-25 12:39:13.881
121.0, 135192.82760534616, 187500.0, 155156.6681452594, 141061.85925744288, 66516.31045535929, 117402.40364103361, 124612.18233253746, 128396.33266882095, -0.27, 0.792, 0.52, 192.0, 247.0, 144.0, 24.0, 192.0, 16.0, 64.0, 0.0, 0.0, 0.0, 1.7272859538842645E9, 0.0, 2024-09-25 12:39:13.884
122.0, 135205.70221015243, 187500.0, 155200.79048881418, 141066.7542894786, 66548.76518830839, 117404.23648407895, 124605.38740222304, 128412.26946261758, -0.27, 0.792, 0.52, 192.0, 0.0, 0.0, 0.0, 0.0, 0.0, 0.0, 0.0, 0.0, 0.0, 1.727285953887169E9, 0.0, 2024-09-25 12:39:13.887
123.0, 135198.34848622663, 187500.0, 155244.77872190223, 141077.7066442617, 66569.10527576272, 117410.09264112623, 124606.16971327899, 128424.94290172374, -0.27, 0.792, 0.52, 192.0, 0.0, 0.0, 0.0, 0.0, 0.0, 0.0, 0.0, 0.0, 0.0, 1.7272859538922536E9, 0.0, 2024-09-25 12:39:13.892
124.0, 135185.98797154284, 187500.0, 155220.14709951248, 141083.33928386442, 66550.44156914254, 117417.53577202986, 124617.52439946227, 128433.63773031686, -0.27, 0.792, 0.52, 192.0, 0.0, 0.0, 0.0, 0.0, 0.0, 0.0, 0.0, 0.0, 0.0, 1.7272859538972504E9, 0.0, 2024-09-25 12:39:13.897
125.0, 135184.08807326414, 187500.0, 155166.54761630864, 141069.9952924246, 66519.32794086075, 117406.5163620134, 124616.3174052617, 128420.49490457714, -0.27, 0.792, 0.52, 192.0, 0.0, 0.0, 0.0, 0.0, 0.0, 0.0, 0.0, 0.0, 0.0, 1.7272859539012465E9, 0.0, 2024-09-25 12:39:13.901
126.0, 135203.64584966254, 187500.0, 155183.44553511686, 141068.6988912462, 66532.87309800067, 117397.15098108661, 124612.27173951529, 128404.73692473615, -0.27, 0.792, 0.52, 192.0, 0.0, 0.0, 0.0, 0.0, 0.0, 0.0, 0.0, 0.0, 0.0, 1.7272859539041965E9, 0.0, 2024-09-25 12:39:13.904
127.0, 135202.43885546195, 187500.0, 155244.77872190223, 141083.07106293095, 66570.82636008578, 117414.58534176176, 124610.43889646995, 128426.28400639106, -0.27, 0.792, 0.52, 192.0, 0.0, 0.0, 0.0, 0.0, 0.0, 0.0, 0.0, 0.0, 0.0, 1.727285953908198E9, 0.0, 2024-09-25 12:39:13.908
128.0, 135179.64007611753, 187500.0, 155226.3832362155, 141080.27709487404, 66552.74379882144, 117418.04986215233, 124605.4097539675, 128438.51041060811, -0.27, 0.792, 0.52, 192.0, 0.0, 0.0, 0.0, 0.0, 0.0, 0.0, 0.0, 0.0, 0.0, 1.7272859539122212E9, 0.0, 2024-09-25 12:39:13.912
129.0, 135182.8587273191, 187500.0, 155161.16084589492, 141065.2343708556, 66513.4941355579, 117401.33075729976, 124606.14736153453, 128411.64361377283, -0.27, 0.792, 0.52, 192.0, 0.0, 0.0, 0.0, 0.0, 0.0, 0.0, 0.0, 0.0, 0.0, 1.7272859539152849E9, 0.0, 2024-09-25 12:39:13.915
130.0, 135197.23089900386, 187500.0, 155174.75070652374, 141062.1498301208, 66529.72150203247, 117397.84388516474, 124607.19789352393, 128408.76023873809, -0.27, 0.792, 0.52, 192.0, 0.0, 0.0, 0.0, 0.0, 0.0, 0.0, 0.0, 0.0, 0.0, 1.727285953920266E9, 0.0, 2024-09-25 12:39:13.920
131.0, 135209.23378577636, 187500.0, 155246.07512308063, 141088.97192346715, 66576.54840666633, 117413.89243768364, 124614.909245361, 128432.7660122831, -0.272, 0.798, 0.526, 192.0, 247.0, 128.0, 24.0, 240.0, 16.0, 112.0, 0.0, 0.0, 0.0, 1.7272859539243135E9, 0.0, 2024-09-25 12:39:13.924
132.0, 135190.39126520054, 187500.0, 155236.62033517603, 141094.04576945852, 66564.92549954957, 117418.98863541945, 124616.1609430505, 128433.52597159457, -0.272, 0.798, 0.526, 192.0, 0.0, 0.0, 0.0, 0.0, 0.0, 0.0, 0.0, 0.0, 0.0, 1.7272859539282796E9, 0.0, 2024-09-25 12:39:13.928
133.0, 135183.75279709732, 187500.0, 155183.64670081696, 141083.74161526462, 66531.39788286661, 117415.09943188423, 124616.1609430505, 128428.89916049234, -0.272, 0.798, 0.526, 192.0, 0.0, 0.0, 0.0, 0.0, 0.0, 0.0, 0.0, 0.0, 0.0, 1.7272859539343383E9, 0.0, 2024-09-25 12:39:13.934
134.0, 135195.33100072516, 187500.0, 155177.34350888056, 141077.9525134507, 66531.84491775572, 117404.23648407895, 124619.916036119, 128413.38704984034, -0.272, 0.798, 0.526, 192.0, 0.0, 0.0, 0.0, 0.0, 0.0, 0.0, 0.0, 0.0, 0.0, 1.7272859539373248E9, 0.0, 2024-09-25 12:39:13.937
135.0, 135196.00155305883, 187500.0, 155240.08485556662, 141090.58124906794, 66575.14024676564, 117415.03237665087, 124620.63129194156, 128431.64842506034, -0.272, 0.798, 0.526, 192.0, 0.0, 0.0, 0.0, 0.0, 0.0, 0.0, 0.0, 0.0, 0.0, 1.7272859539403324E9, 0.0, 2024-09-25 12:39:13.940
136.0, 135182.50109940782, 187500.0, 155243.61643119054, 141092.54820258002, 66572.50274091992, 117418.16162087461, 124618.30671051821, 128437.45987861871, -0.272, 0.798, 0.526, 192.0, 0.0, 0.0, 0.0, 0.0, 0.0, 0.0, 0.0, 0.0, 0.0, 1.72728595394432E9, 0.0, 2024-09-25 12:39:13.944
137.0, 135174.02978825924, 187500.0, 155185.32308165112, 141080.4559088297, 66534.99651372392, 117410.09264112623, 124619.44664948544, 128427.62511105838, -0.272, 0.798, 0.526, 192.0, 0.0, 0.0, 0.0, 0.0, 0.0, 0.0, 0.0, 0.0, 0.0, 1.727285953948254E9, 0.0, 2024-09-25 12:39:13.948
138.0, 135179.97535228435, 187500.0, 155168.35810760953, 141073.77273723754, 66530.01207471038, 117404.12472535667, 124616.65268142852, 128426.52987558006, -0.272, 0.798, 0.526, 192.0, 0.0, 0.0, 0.0, 0.0, 0.0, 0.0, 0.0, 0.0, 0.0, 1.727285953952288E9, 0.0, 2024-09-25 12:39:13.952
139.0, 135189.74306461134, 187500.0, 155226.51734668223, 141084.76979550955, 66572.12276126418, 117412.10429812722, 124620.9665681084, 128440.58912284246, -0.272, 0.798, 0.526, 192.0, 0.0, 0.0, 0.0, 0.0, 0.0, 0.0, 0.0, 0.0, 0.0, 1.7272859539562628E9, 0.0, 2024-09-25 12:39:13.956
140.0, 135172.28635219173, 187500.0, 155246.18688180292, 141088.88251648934, 66575.18495025455, 117418.16162087461, 124619.98309135236, 128447.60757060142, -0.272, 0.798, 0.526, 192.0, 0.0, 0.0, 0.0, 0.0, 0.0, 0.0, 0.0, 0.0, 0.0, 1.7272859539603517E9, 0.0, 2024-09-25 12:39:13.960
141.0, 135154.91904674997, 187500.0, 155202.3774626705, 141085.01566469856, 66547.3570284077, 117424.30835059982, 124624.47579198788, 128452.3684921704, -0.272, 0.798, 0.526, 192.0, 0.0, 0.0, 0.0, 0.0, 0.0, 0.0, 0.0, 0.0, 0.0, 1.727285953965356E9, 0.0, 2024-09-25 12:39:13.965
142.0, 135154.87434326106, 187500.0, 155173.20843615633, 141078.7571762511, 66538.7516067924, 117423.88366745517, 124623.89464663205, 128455.18481197178, -0.266, 0.8, 0.526, 192.0, 247.0, 176.0, 25.0, 0.0, 16.0, 112.0, 0.0, 0.0, 0.0, 1.7272859539683459E9, 0.0, 2024-09-25 12:39:13.968
143.0, 135175.6167621156, 187500.0, 155207.65247436197, 141083.2498768866, 66566.13249375016, 117415.27824583987, 124627.69444318944, 128440.34325365345, -0.266, 0.8, 0.526, 192.0, 0.0, 0.0, 0.0, 0.0, 0.0, 0.0, 0.0, 0.0, 0.0, 1.7272859539713593E9, 0.0, 2024-09-25 12:39:13.971
144.0, 135167.4136719005, 187500.0, 155247.70680042586, 141092.39174036882, 66590.6747091621, 117427.214077379, 124623.82759139867, 128457.1741172283, -0.266, 0.8, 0.526, 192.0, 0.0, 0.0, 0.0, 0.0, 0.0, 0.0, 0.0, 0.0, 0.0, 1.7272859539763849E9, 0.0, 2024-09-25 12:39:13.976
145.0, 135155.43313687242, 187500.0, 155199.5834946136, 141080.1429844073, 66553.4143511551, 117419.90505694212, 124623.49231523185, 128449.12748922438, -0.266, 0.8, 0.526, 192.0, 0.0, 0.0, 0.0, 0.0, 0.0, 0.0, 0.0, 0.0, 0.0, 1.7272859539803708E9, 0.0, 2024-09-25 12:39:13.980
146.0, 135152.86268626008, 187500.0, 155155.371744081, 141063.66974874376, 66529.20741190999, 117406.80693469131, 124619.33489076316, 128436.1634774403, -0.266, 0.8, 0.526, 192.0, 0.0, 0.0, 0.0, 0.0, 0.0, 0.0, 0.0, 0.0, 0.0, 1.7272859539844043E9, 0.0, 2024-09-25 12:39:13.984
147.0, 135164.03855848772, 187500.0, 155194.62140734453, 141062.12747837632, 66555.69422908952, 117402.26953056689, 124609.92480634748, 128445.39474790034, -0.266, 0.8, 0.526, 192.0, 0.0, 0.0, 0.0, 0.0, 0.0, 0.0, 0.0, 0.0, 0.0, 1.7272859539904013E9, 0.0, 2024-09-25 12:39:13.990
148.0, 135160.32816890816, 187500.0, 155238.43082647692, 141073.61627502638, 66579.25296774543, 117407.47748702497, 124612.159980793, 128451.94380902575, -0.266, 0.8, 0.526, 192.0, 0.0, 0.0, 0.0, 0.0, 0.0, 0.0, 0.0, 0.0, 0.0, 1.7272859539933789E9, 0.0, 2024-09-25 12:39:13.993
149.0, 135148.5040960913, 187500.0, 155211.20640173036, 141079.5618390515, 66556.99063026794, 117417.15579237412, 124619.60311169662, 128456.3694544279, -0.266, 0.8, 0.526, 192.0, 0.0, 0.0, 0.0, 0.0, 0.0, 0.0, 0.0, 0.0, 0.0, 1.7272859539963703E9, 0.0, 2024-09-25 12:39:13.996
150.0, 135143.47495358885, 187500.0, 155167.6875552759, 141069.86118195788, 66532.00137996691, 117411.88078068267, 124615.60214943912, 128461.15272774134, -0.266, 0.8, 0.526, 192.0, 0.0, 0.0, 0.0, 0.0, 0.0, 0.0, 0.0, 0.0, 0.0, 1.7272859540004315E9, 0.0, 2024-09-25 12:39:14.000
151.0, 135168.44185214542, 187500.0, 155177.90230249194, 141067.71541449017, 66546.1053307182, 117399.1626380876, 124616.89855061754, 128437.70574780772, -0.266, 0.8, 0.526, 192.0, 0.0, 0.0, 0.0, 0.0, 0.0, 0.0, 0.0, 0.0, 0.0, 1.7272859540033984E9, 0.0, 2024-09-25 12:39:14.003
152.0, 135167.88305853403, 187500.0, 155233.4910909523, 141075.11384190488, 66581.68930789105, 117406.15873410211, 124612.22703602636, 128444.61243684441, -0.266, 0.8, 0.532, 192.0, 247.0, 176.0, 25.0, 0.0, 16.0, 160.0, 0.0, 0.0, 0.0, 1.7272859540084033E9, 0.0, 2024-09-25 12:39:14.008
153.0, 135153.01914847127, 187500.0, 155219.49889892328, 141076.298484361, 66563.3608774377, 117413.95949291701, 124611.33296624816, 128449.12748922438, -0.266, 0.8, 0.532, 192.0, 0.0, 0.0, 0.0, 0.0, 0.0, 0.0, 0.0, 0.0, 0.0, 1.7272859540124373E9, 0.0, 2024-09-25 12:39:14.012
154.0, 135151.67804380396, 187500.0, 155171.19677915535, 141070.799955225, 66533.40953986759, 117414.67474873958, 124617.3679372511, 128434.33063439497, -0.266, 0.8, 0.532, 192.0, 0.0, 0.0, 0.0, 0.0, 0.0, 0.0, 0.0, 0.0, 0.0, 1.727285954016402E9, 0.0, 2024-09-25 12:39:14.016
155.0, 135156.48366886182, 187500.0, 155184.45136361735, 141069.77177498006, 66547.64760108561, 117415.36765281769, 124615.84801862814, 128436.72227105168, -0.266, 0.8, 0.532, 192.0, 0.0, 0.0, 0.0, 0.0, 0.0, 0.0, 0.0, 0.0, 0.0, 1.7272859540195422E9, 0.0, 2024-09-25 12:39:14.019
156.0, 135171.97342776935, 187500.0, 155237.8496811211, 141081.4617373302, 66580.70583113501, 117415.52411502888, 124621.59241695315, 128436.34229139595, -0.266, 0.8, 0.532, 192.0, 0.0, 0.0, 0.0, 0.0, 0.0, 0.0, 0.0, 0.0, 0.0, 1.727285954023448E9, 0.0, 2024-09-25 12:39:14.023
157.0, 135166.0055119998, 187500.0, 155232.9993525743, 141087.8990397333, 66572.92742406458, 117421.40262382063, 124624.90047513253, 128436.3646431404, -0.266, 0.8, 0.532, 192.0, 0.0, 0.0, 0.0, 0.0, 0.0, 0.0, 0.0, 0.0, 0.0, 1.7272859540274773E9, 0.0, 2024-09-25 12:39:14.027
158.0, 135146.8947704905, 187500.0, 155183.60199732805, 141078.42190008424, 66540.91972600458, 117422.25199010993, 124619.7148704189, 128441.08086122047, -0.266, 0.8, 0.532, 192.0, 0.0, 0.0, 0.0, 0.0, 0.0, 0.0, 0.0, 0.0, 0.0, 1.7272859540314665E9, 0.0, 2024-09-25 12:39:14.031
159.0, 135160.7528520528, 187500.0, 155180.56216008213, 141077.48312681713, 66546.41825514058, 117418.94393193054, 124619.93838786345, 128443.53955311056, -0.266, 0.8, 0.532, 192.0, 0.0, 0.0, 0.0, 0.0, 0.0, 0.0, 0.0, 0.0, 0.0, 1.7272859540364552E9, 0.0, 2024-09-25 12:39:14.036
160.0, 135180.5117941513, 187500.0, 155232.82053861863, 141086.08854843242, 66579.45413344553, 117415.01002490641, 124618.2620070293, 128437.54928559653, -0.266, 0.8, 0.532, 192.0, 0.0, 0.0, 0.0, 0.0, 0.0, 0.0, 0.0, 0.0, 0.0, 1.727285954040482E9, 0.0, 2024-09-25 12:39:14.040
161.0, 135174.655637104, 187500.0, 155244.3987422465, 141095.92331599275, 66578.15773226711, 117421.49203079844, 124621.65947218651, 128442.95840775472, -0.266, 0.8, 0.532, 192.0, 0.0, 0.0, 0.0, 0.0, 0.0, 0.0, 0.0, 0.0, 0.0, 1.7272859540444894E9, 0.0, 2024-09-25 12:39:14.044
162.0, 135164.4632416324, 187500.0, 155192.98972999927, 141088.4131298558, 66544.13837720614, 117419.50272554193, 124623.58172220967, 128433.95065473922, -0.268, 0.796, 0.532, 192.0, 247.0, 160.0, 24.0, 224.0, 16.0, 160.0, 0.0, 0.0, 0.0, 1.72728595404743E9, 0.0, 2024-09-25 12:39:14.047
163.0, 135167.0560439892, 187500.0, 155180.11512519303, 141080.23239138513, 66544.0042667394, 117418.16162087461, 124619.17842855197, 128442.01963448759, -0.268, 0.796, 0.532, 192.0, 0.0, 0.0, 0.0, 0.0, 0.0, 0.0, 0.0, 0.0, 0.0, 1.727285954052511E9, 0.0, 2024-09-25 12:39:14.052
164.0, 135177.5613638832, 187500.0, 155235.1004165531, 141084.8144989985, 66581.68930789105, 117423.0119494214, 124614.50691396081, 128460.52687889659, -0.268, 0.796, 0.532, 192.0, 0.0, 0.0, 0.0, 0.0, 0.0, 0.0, 0.0, 0.0, 0.0, 1.7272859540565393E9, 0.0, 2024-09-25 12:39:14.056
165.0, 135169.17945971244, 187500.0, 155254.81465516266, 141088.36842636685, 66587.7689823829, 117422.20728662102, 124614.0598790717, 128464.75135859865, -0.268, 0.796, 0.532, 192.0, 0.0, 0.0, 0.0, 0.0, 0.0, 0.0, 0.0, 0.0, 0.0, 1.7272859540595315E9, 0.0, 2024-09-25 12:39:14.059
166.0, 135167.03369224473, 187500.0, 155203.96443652685, 141082.98165595313, 66550.37451390916, 117417.53577202986, 124617.65850992901, 128451.9661607702, -0.268, 0.796, 0.532, 192.0, 0.0, 0.0, 0.0, 0.0, 0.0, 0.0, 0.0, 0.0, 0.0, 1.7272859540645149E9, 0.0, 2024-09-25 12:39:14.064
167.0, 135185.160956998, 187500.0, 155178.46109610333, 141085.3062373765, 66543.6019353392, 117417.33460632976, 124628.29794028973, 128445.35004441143, -0.268, 0.796, 0.532, 192.0, 0.0, 0.0, 0.0, 0.0, 0.0, 0.0, 0.0, 0.0, 0.0, 1.7272859540695202E9, 0.0, 2024-09-25 12:39:14.069
168.0, 135204.78578862976, 187500.0, 155220.0353407902, 141094.78337702554, 66574.02265954288, 117419.25685635292, 124631.74010893586, 128438.24218967465, -0.268, 0.796, 0.532, 192.0, 0.0, 0.0, 0.0, 0.0, 0.0, 0.0, 0.0, 0.0, 0.0, 1.727285954073526E9, 0.0, 2024-09-25 12:39:14.073
169.0, 135213.07828582267, 187500.0, 155267.24222507983, 141112.79888305653, 66600.10714532222, 117440.6251240522, 124635.02581537078, 128461.2197829747, -0.268, 0.796, 0.532, 192.0, 0.0, 0.0, 0.0, 0.0, 0.0, 0.0, 0.0, 0.0, 0.0, 1.7272859540764792E9, 0.0, 2024-09-25 12:39:14.076
