%OpenBCI Raw EXG Data
%Number of channels = 8
%Sample Rate = 250 Hz
%Board = OpenBCI_GUI$BoardCytonSerial
Sample Index, EXG Channel 0, EXG Channel 1, EXG Channel 2, EXG Channel 3, EXG Channel 4, EXG Channel 5, EXG Channel 6, EXG Channel 7, Accel Channel 0, Accel Channel 1, Accel Channel 2, Not Used, Digital Channel 0 (D11), Digital Channel 1 (D12), Digital Channel 2 (D13), Digital Channel 3 (D17), Not Used, Digital Channel 4 (D18), Analog Channel 0, Analog Channel 1, Analog Channel 2, Timestamp, Marker Channel, Timestamp (Formatted)
0.0, 0.0, 0.0, 0.0, 0.0, 0.0, 0.0, 0.0, 0.0, -0.246, 0.834, 0.48, 192.0, 248.0, 80.0, 26.0, 16.0, 15.0, 0.0, 0.0, 0.0, 0.0, 1.7272857140508933E9, 0.0, 2024-09-25 12:35:14.050
1.0, 117651.15620507672, 187500.0, 146904.00176095986, 132389.8517954173, 56866.81650481421, 107005.02032101397, 115261.06181872629, 119591.9805278755, -0.246, 0.834, 0.48, 192.0, 0.0, 0.0, 0.0, 0.0, 0.0, 0.0, 0.0, 0.0, 0.0, 1.7272857140659025E9, 0.0, 2024-09-25 12:35:14.065
2.0, 117648.42929225317, 187500.0, 146912.29425815278, 132398.68073447715, 56871.532722894284, 107013.06694901788, 115263.9004902721, 119599.22249307901, -0.246, 0.834, 0.48, 192.0, 0.0, 0.0, 0.0, 0.0, 0.0, 0.0, 0.0, 0.0, 0.0, 1.7272857140710328E9, 0.0, 2024-09-25 12:35:14.071
3.0, 117653.79371092246, 187500.0, 146869.60242624313, 132402.48053103455, 56847.281080160275, 107012.57521063987, 115277.42329566757, 119584.82796964979, -0.246, 0.834, 0.48, 192.0, 0.0, 0.0, 0.0, 0.0, 0.0, 0.0, 0.0, 0.0, 0.0, 1.7272857140749996E9, 0.0, 2024-09-25 12:35:14.074
4.0, 117667.38357155128, 187500.0, 146863.6121587291, 132408.94018518212, 56851.37144939559, 107016.86674557529, 115286.09577251623, 119583.95625161604, -0.246, 0.834, 0.48, 192.0, 0.0, 0.0, 0.0, 0.0, 0.0, 0.0, 0.0, 0.0, 0.0, 1.7272857140780046E9, 0.0, 2024-09-25 12:35:14.078
5.0, 117684.86263571533, 187500.0, 146903.55472607075, 132417.54560679742, 56876.83008633019, 107017.87257407578, 115286.25223472742, 119580.75995215893, -0.246, 0.834, 0.48, 192.0, 0.0, 0.0, 0.0, 0.0, 0.0, 0.0, 0.0, 0.0, 0.0, 1.727285714081E9, 0.0, 2024-09-25 12:35:14.081
6.0, 117680.280528102, 187500.0, 146927.31463042673, 132428.78853425843, 56892.677473149, 107033.47409170558, 115292.42131619708, 119600.04950762386, -0.246, 0.834, 0.48, 192.0, 0.0, 0.0, 0.0, 0.0, 0.0, 0.0, 0.0, 0.0, 0.0, 1.7272857140849593E9, 0.0, 2024-09-25 12:35:14.084
7.0, 117673.1279698763, 187500.0, 146899.15143241305, 132430.53197032594, 56879.847571831655, 107044.7170191666, 115300.19972326753, 119617.34975783227, -0.246, 0.834, 0.48, 192.0, 0.0, 0.0, 0.0, 0.0, 0.0, 0.0, 0.0, 0.0, 0.0, 1.7272857140899856E9, 0.0, 2024-09-25 12:35:14.089
8.0, 117685.93551944918, 187500.0, 146881.49355429335, 132429.57084531436, 56875.84660957415, 107045.87930987828, 115310.79445013935, 119623.02710092392, -0.23800000000000002, 0.852, 0.468, 192.0, 248.0, 144.0, 26.0, 160.0, 14.0, 160.0, 0.0, 0.0, 0.0, 1.72728571409399E9, 0.0, 2024-09-25 12:35:14.093
9.0, 117709.94129299419, 187500.0, 146927.64990659355, 132441.23845592004, 56912.0340838473, 107056.60814721682, 115317.81289789831, 119637.86865924225, -0.23800000000000002, 0.852, 0.468, 192.0, 0.0, 0.0, 0.0, 0.0, 0.0, 0.0, 0.0, 0.0, 0.0, 1.7272857141009903E9, 0.0, 2024-09-25 12:35:14.100
10.0, 117703.25812140205, 187500.0, 146964.95496808947, 132447.78751704545, 56934.7881597028, 107069.32628981188, 115311.6661681731, 119669.6975433466, -0.23800000000000002, 0.852, 0.468, 192.0, 0.0, 0.0, 0.0, 0.0, 0.0, 0.0, 0.0, 0.0, 0.0, 1.7272857141050117E9, 0.0, 2024-09-25 12:35:14.105
11.0, 117706.65558655925, 187500.0, 146934.40013341905, 132446.06643272238, 56911.56469721374, 107070.06389737892, 115320.78567991087, 119667.73058983454, -0.23800000000000002, 0.852, 0.468, 192.0, 0.0, 0.0, 0.0, 0.0, 0.0, 0.0, 0.0, 0.0, 0.0, 1.727285714108009E9, 0.0, 2024-09-25 12:35:14.108
12.0, 117718.97139775413, 187500.0, 146911.64605756357, 132450.20150544663, 56904.8815256216, 107074.15426661423, 115333.95085739504, 119667.1494444787, -0.23800000000000002, 0.852, 0.468, 192.0, 0.0, 0.0, 0.0, 0.0, 0.0, 0.0, 0.0, 0.0, 0.0, 1.727285714110995E9, 0.0, 2024-09-25 12:35:14.110
13.0, 117745.81584284495, 187500.0, 146950.22516849343, 132469.20048823365, 56933.26824107984, 107086.15715338674, 115344.70204647805, 119671.75390383649, -0.23800000000000002, 0.852, 0.468, 192.0, 0.0, 0.0, 0.0, 0.0, 0.0, 0.0, 0.0, 0.0, 0.0, 1.7272857141149893E9, 0.0, 2024-09-25 12:35:14.114
14.0, 117752.3425522259, 187500.0, 146992.06763411374, 132488.24417450954, 56961.83377049372, 107103.43505185068, 115350.49114829197, 119682.37098245276, -0.23800000000000002, 0.852, 0.468, 192.0, 0.0, 0.0, 0.0, 0.0, 0.0, 0.0, 0.0, 0.0, 0.0, 1.7272857141180232E9, 0.0, 2024-09-25 12:35:14.118
15.0, 117743.2453922326, 187500.0, 146981.31644503077, 132493.04979956744, 56929.334334055704, 107119.01421773604, 115354.84973846076, 119704.36509899677, -0.23800000000000002, 0.852, 0.468, 192.0, 0.0, 0.0, 0.0, 0.0, 0.0, 0.0, 0.0, 0.0, 0.0, 1.7272857141339803E9, 0.0, 2024-09-25 12:35:14.133
16.0, 117754.15304352678, 187500.0, 146951.6333283941, 132491.46282571112, 56775.46492522537, 107117.49429911308, 115365.44446533258, 119697.97250008256, -0.23800000000000002, 0.852, 0.468, 192.0, 0.0, 0.0, 0.0, 0.0, 0.0, 0.0, 0.0, 0.0, 0.0, 1.7272857141380048E9, 0.0, 2024-09-25 12:35:14.138
17.0, 117768.52521521154, 187500.0, 146969.8276483807, 132491.6192879223, 56767.84298036611, 107115.16971768973, 115365.5785757993, 119689.79176161192, -0.23800000000000002, 0.852, 0.468, 192.0, 0.0, 0.0, 0.0, 0.0, 0.0, 0.0, 0.0, 0.0, 0.0, 1.7272857141409721E9, 0.0, 2024-09-25 12:35:14.140
18.0, 117766.75942739958, 187500.0, 147009.90432618908, 132498.05659032543, 56832.97596370888, 107119.2824386695, 115366.31618336633, 119698.30777624939, -0.23800000000000002, 0.86, 0.466, 192.0, 248.0, 144.0, 26.0, 224.0, 14.0, 144.0, 0.0, 0.0, 0.0, 1.7272857141440272E9, 0.0, 2024-09-25 12:35:14.144
19.0, 117756.47762495013, 187500.0, 146986.21147706648, 132491.26166001102, 56841.80490276872, 107113.67215081122, 115366.58440429979, 119686.39429645472, -0.23800000000000002, 0.86, 0.466, 192.0, 0.0, 0.0, 0.0, 0.0, 0.0, 0.0, 0.0, 0.0, 0.0, 1.7272857141480484E9, 0.0, 2024-09-25 12:35:14.148
20.0, 117755.87412784983, 187500.0, 146953.77909586183, 132487.528918687, 56841.335516135165, 107113.13570894429, 115367.54552931138, 119686.41664819917, -0.23800000000000002, 0.86, 0.466, 192.0, 0.0, 0.0, 0.0, 0.0, 0.0, 0.0, 0.0, 0.0, 0.0, 1.727285714152034E9, 0.0, 2024-09-25 12:35:14.152
21.0, 117770.80509314599, 187500.0, 146971.74989840388, 132492.1780815337, 56867.59881587015, 107114.32035140043, 115369.3336688678, 119697.14548553771, -0.23800000000000002, 0.86, 0.466, 192.0, 0.0, 0.0, 0.0, 0.0, 0.0, 0.0, 0.0, 0.0, 0.0, 1.7272857141550803E9, 0.0, 2024-09-25 12:35:14.155
22.0, 117784.08202935244, 187500.0, 147022.30954436178, 132514.70863994464, 56913.062264092245, 107127.17260446222, 115383.19175043008, 119709.08131707685, -0.23800000000000002, 0.86, 0.466, 192.0, 0.0, 0.0, 0.0, 0.0, 0.0, 0.0, 0.0, 0.0, 0.0, 1.7272857141589668E9, 0.0, 2024-09-25 12:35:14.158
23.0, 117773.82257864745, 187500.0, 147025.70700951898, 132523.51522726004, 56922.60645897466, 107134.77219757703, 115385.62809057572, 119724.86164866229, -0.23800000000000002, 0.86, 0.466, 192.0, 0.0, 0.0, 0.0, 0.0, 0.0, 0.0, 0.0, 0.0, 0.0, 1.7272857141620717E9, 0.0, 2024-09-25 12:35:14.162
24.0, 117774.38137225884, 187500.0, 146985.36211077718, 132520.29657605846, 56903.272200020816, 107134.07929349891, 115393.47355287953, 119726.98506438555, -0.23800000000000002, 0.86, 0.466, 192.0, 0.0, 0.0, 0.0, 0.0, 0.0, 0.0, 0.0, 0.0, 0.0, 1.7272857141650844E9, 0.0, 2024-09-25 12:35:14.165
25.0, 117794.76616320208, 187500.0, 146992.55937249179, 132524.81162843845, 56918.04670310578, 107136.82855806692, 115397.29570118139, 119736.23868659005, -0.23800000000000002, 0.86, 0.466, 192.0, 0.0, 0.0, 0.0, 0.0, 0.0, 0.0, 0.0, 0.0, 0.0, 1.7272857141680532E9, 0.0, 2024-09-25 12:35:14.168
26.0, 117811.7534889881, 187500.0, 147041.46498935999, 132538.44619255618, 56958.078677425234, 107143.84700582588, 115404.58236987381, 119747.2133931176, -0.23800000000000002, 0.86, 0.466, 192.0, 0.0, 0.0, 0.0, 0.0, 0.0, 0.0, 0.0, 0.0, 0.0, 1.727285714172088E9, 0.0, 2024-09-25 12:35:14.172
27.0, 117806.99256741913, 187500.0, 147053.37846915468, 132547.16337289373, 56970.70741304248, 107155.02287805354, 115410.08089900982, 119757.1152159113, -0.23800000000000002, 0.86, 0.466, 192.0, 0.0, 0.0, 0.0, 0.0, 0.0, 0.0, 0.0, 0.0, 0.0, 1.72728571417513E9, 0.0, 2024-09-25 12:35:14.175
28.0, 117804.26565459558, 187500.0, 147016.0510559143, 132541.91071294676, 56946.27695635283, 107156.00635480958, 115414.55124790088, 119754.90239321023, -0.23600000000000002, 0.874, 0.462, 192.0, 248.0, 160.0, 27.0, 80.0, 14.0, 112.0, 0.0, 0.0, 0.0, 1.7272857141781003E9, 0.0, 2024-09-25 12:35:14.178
29.0, 117818.70488151371, 187500.0, 147005.72454997594, 132540.99429142408, 56949.24973836538, 107155.0899332869, 115423.51429742746, 119749.11329139631, -0.23600000000000002, 0.874, 0.462, 192.0, 0.0, 0.0, 0.0, 0.0, 0.0, 0.0, 0.0, 0.0, 0.0, 1.7272857141810992E9, 0.0, 2024-09-25 12:35:14.181
30.0, 117835.15576543282, 187500.0, 147055.8148093003, 132555.3888148533, 56988.87938128464, 107165.3493839919, 115423.15666951617, 119763.0160764475, -0.23600000000000002, 0.874, 0.462, 192.0, 0.0, 0.0, 0.0, 0.0, 0.0, 0.0, 0.0, 0.0, 0.0, 1.7272857141850765E9, 0.0, 2024-09-25 12:35:14.185
31.0, 117835.33457938845, 187500.0, 147077.94303631104, 132564.57538182443, 57007.07370127126, 107173.10543931788, 115429.41515796367, 119771.33092538489, -0.23600000000000002, 0.874, 0.462, 192.0, 0.0, 0.0, 0.0, 0.0, 0.0, 0.0, 0.0, 0.0, 0.0, 1.7272857141900785E9, 0.0, 2024-09-25 12:35:14.190
32.0, 117831.24421015313, 187500.0, 147045.37654463967, 132562.85429750138, 56988.99114000692, 107175.18415155222, 115432.61145742077, 119772.96260273011, -0.23600000000000002, 0.874, 0.462, 192.0, 0.0, 0.0, 0.0, 0.0, 0.0, 0.0, 0.0, 0.0, 0.0, 1.727285714193124E9, 0.0, 2024-09-25 12:35:14.193
33.0, 117835.46868985519, 187500.0, 147032.77016076687, 132560.06032944444, 56984.029052737846, 107177.68754693122, 115432.70086439859, 119783.2220534351, -0.23600000000000002, 0.874, 0.462, 192.0, 0.0, 0.0, 0.0, 0.0, 0.0, 0.0, 0.0, 0.0, 0.0, 1.7272857141970937E9, 0.0, 2024-09-25 12:35:14.197
34.0, 117854.4676726422, 187500.0, 147066.63305361665, 132565.7376725361, 57009.97942805045, 107174.15597130728, 115437.86411736776, 119776.60593707633, -0.23600000000000002, 0.874, 0.462, 192.0, 0.0, 0.0, 0.0, 0.0, 0.0, 0.0, 0.0, 0.0, 0.0, 1.7272857142001588E9, 0.0, 2024-09-25 12:35:14.200
35.0, 117854.62413485338, 187500.0, 147096.02559757538, 132573.71724530665, 57030.028942826866, 107182.6496342003, 115437.17121328965, 119785.18900694717, -0.23600000000000002, 0.874, 0.462, 192.0, 0.0, 0.0, 0.0, 0.0, 0.0, 0.0, 0.0, 0.0, 0.0, 1.7272857142031283E9, 0.0, 2024-09-25 12:35:14.203
36.0, 117845.0128847376, 187500.0, 147067.8176960728, 132570.45389061616, 57008.52656466086, 107187.58936972493, 115433.81845162135, 119790.15109421624, -0.23600000000000002, 0.874, 0.462, 192.0, 0.0, 0.0, 0.0, 0.0, 0.0, 0.0, 0.0, 0.0, 0.0, 1.727285714206107E9, 0.0, 2024-09-25 12:35:14.206
37.0, 117855.42879765377, 187500.0, 147041.5543963378, 132570.543297594, 56996.3001604438, 107189.22104707015, 115441.88743136972, 119789.34643141586, -0.23600000000000002, 0.874, 0.462, 192.0, 0.0, 0.0, 0.0, 0.0, 0.0, 0.0, 0.0, 0.0, 0.0, 1.7272857142110949E9, 0.0, 2024-09-25 12:35:14.211
38.0, 117881.93796657777, 187500.0, 147074.18794324255, 132585.27309719005, 57026.07268405827, 107194.47370701715, 115457.89128039972, 119787.15596045923, -0.23600000000000002, 0.874, 0.462, 192.0, 0.0, 0.0, 0.0, 0.0, 0.0, 0.0, 0.0, 0.0, 0.0, 1.7272857142150867E9, 0.0, 2024-09-25 12:35:14.215
39.0, 117886.14009453537, 187500.0, 147119.3161152978, 132603.4897689211, 57057.34277455125, 107212.51156479258, 115461.26639381248, 119801.28226295499, -0.232, 0.872, 0.458, 192.0, 248.0, 192.0, 27.0, 64.0, 14.0, 80.0, 0.0, 0.0, 0.0, 1.7272857142181373E9, 0.0, 2024-09-25 12:35:14.218
40.0, 117879.05459154304, 187500.0, 147103.9157633681, 132601.56751889797, 57046.47982674597, 107217.18307938374, 115459.96999263407, 119812.14521076027, -0.232, 0.872, 0.458, 192.0, 0.0, 0.0, 0.0, 0.0, 0.0, 0.0, 0.0, 0.0, 0.0, 1.7272857142221694E9, 0.0, 2024-09-25 12:35:14.222
41.0, 117888.01764106961, 187500.0, 147077.38424269966, 132601.07578051995, 57028.93370734855, 107220.04410267403, 115460.05939961188, 119819.65539689726, -0.232, 0.872, 0.458, 192.0, 0.0, 0.0, 0.0, 0.0, 0.0, 0.0, 0.0, 0.0, 0.0, 1.727285714226168E9, 0.0, 2024-09-25 12:35:14.226
42.0, 117903.10506857694, 187500.0, 147096.58439118677, 132606.7978271005, 57047.93269013557, 107217.87598346187, 115470.76588520598, 119815.65443463976, -0.232, 0.872, 0.458, 192.0, 0.0, 0.0, 0.0, 0.0, 0.0, 0.0, 0.0, 0.0, 0.0, 1.7272857142312005E9, 0.0, 2024-09-25 12:35:14.231
43.0, 117908.89417039088, 187500.0, 147149.31215635684, 132621.57233018547, 57086.780021998886, 107231.37643711286, 115473.6045567518, 119837.87206862833, -0.232, 0.872, 0.458, 192.0, 0.0, 0.0, 0.0, 0.0, 0.0, 0.0, 0.0, 0.0, 0.0, 1.7272857142351213E9, 0.0, 2024-09-25 12:35:14.235
44.0, 117902.32275752102, 187500.0, 147135.9905166615, 132619.4042109733, 57074.03952765936, 107230.7058847792, 115474.58803350784, 119838.45321398416, -0.232, 0.872, 0.458, 192.0, 0.0, 0.0, 0.0, 0.0, 0.0, 0.0, 0.0, 0.0, 0.0, 1.7272857142392015E9, 0.0, 2024-09-25 12:35:14.239
45.0, 117900.40050749786, 187500.0, 147094.1704027856, 132609.9047195798, 57048.04444885784, 107224.69326552073, 115478.2090161096, 119831.278304014, -0.232, 0.872, 0.458, 192.0, 0.0, 0.0, 0.0, 0.0, 0.0, 0.0, 0.0, 0.0, 0.0, 1.7272857142422276E9, 0.0, 2024-09-25 12:35:14.242
46.0, 117925.90384792136, 187500.0, 147107.44733899206, 132619.33715573992, 57063.89183567665, 107228.71657952269, 115491.70946976061, 119828.61844642383, -0.232, 0.872, 0.458, 192.0, 0.0, 0.0, 0.0, 0.0, 0.0, 0.0, 0.0, 0.0, 0.0, 1.7272857142462204E9, 0.0, 2024-09-25 12:35:14.246
47.0, 117934.91160093684, 187500.0, 147154.52011281493, 132630.33421401193, 57099.40875761614, 107235.84678600392, 115492.98351919456, 119838.56497270644, -0.232, 0.872, 0.458, 192.0, 0.0, 0.0, 0.0, 0.0, 0.0, 0.0, 0.0, 0.0, 0.0, 1.727285714249179E9, 0.0, 2024-09-25 12:35:14.249
48.0, 117927.80374620006, 187500.0, 147152.12847615822, 132636.23507454814, 57099.34170238277, 107244.80983553051, 115500.91838847619, 119848.33268503341, -0.232, 0.872, 0.458, 192.0, 0.0, 0.0, 0.0, 0.0, 0.0, 0.0, 0.0, 0.0, 0.0, 1.7272857142532167E9, 0.0, 2024-09-25 12:35:14.253
49.0, 117916.9855018837, 187500.0, 147114.35402802873, 132630.13304831184, 57081.616769029715, 107247.78261754307, 115507.64626355724, 119857.29573455999, -0.228, 0.866, 0.458, 192.0, 248.0, 224.0, 27.0, 16.0, 14.0, 80.0, 0.0, 0.0, 0.0, 1.7272857142572424E9, 0.0, 2024-09-25 12:35:14.257
50.0, 117930.88828693489, 187500.0, 147114.93517338458, 132630.9600628567, 57083.80723998633, 107248.78844604355, 115511.89309500375, 119865.27530733054, -0.228, 0.866, 0.458, 192.0, 0.0, 0.0, 0.0, 0.0, 0.0, 0.0, 0.0, 0.0, 0.0, 1.727285714261257E9, 0.0, 2024-09-25 12:35:14.261
51.0, 117949.82021448854, 187500.0, 147161.5832640628, 132643.05235660702, 57116.88782178019, 107254.01875424609, 115517.01164448401, 119872.5396242785, -0.228, 0.866, 0.458, 192.0, 0.0, 0.0, 0.0, 0.0, 0.0, 0.0, 0.0, 0.0, 0.0, 1.7272857142642572E9, 0.0, 2024-09-25 12:35:14.264
52.0, 117948.9931999437, 187500.0, 147170.7921827784, 132655.90460966883, 57123.123958483215, 107263.04885900604, 115525.95234226613, 119877.85933945887, -0.228, 0.866, 0.458, 192.0, 0.0, 0.0, 0.0, 0.0, 0.0, 0.0, 0.0, 0.0, 0.0, 1.7272857142702549E9, 0.0, 2024-09-25 12:35:14.270
53.0, 117941.17008938434, 187500.0, 147138.35980157374, 132653.26710382308, 57103.65558906265, 107267.34039394146, 115533.03784525847, 119888.18584539722, -0.228, 0.866, 0.458, 192.0, 0.0, 0.0, 0.0, 0.0, 0.0, 0.0, 0.0, 0.0, 0.0, 1.7272857142732587E9, 0.0, 2024-09-25 12:35:14.273
54.0, 117964.61706931796, 187500.0, 147121.03719962089, 132656.23988583565, 57100.124013438704, 107264.52407414009, 115547.85705183234, 119876.71940049165, -0.228, 0.866, 0.458, 192.0, 0.0, 0.0, 0.0, 0.0, 0.0, 0.0, 0.0, 0.0, 0.0, 1.7272857142782714E9, 0.0, 2024-09-25 12:35:14.278
55.0, 117982.9007962824, 187500.0, 147162.56674081885, 132674.8588889669, 57131.528214398415, 107274.91763531181, 115555.70251413615, 119882.46379881667, -0.228, 0.866, 0.458, 192.0, 0.0, 0.0, 0.0, 0.0, 0.0, 0.0, 0.0, 0.0, 0.0, 1.7272857142823079E9, 0.0, 2024-09-25 12:35:14.282
56.0, 117976.3964386459, 187500.0, 147191.02051151043, 132691.44388335274, 57147.55441517287, 107295.10126055495, 115560.08345604938, 119906.87190376186, -0.228, 0.866, 0.458, 192.0, 0.0, 0.0, 0.0, 0.0, 0.0, 0.0, 0.0, 0.0, 0.0, 1.72728571428623E9, 0.0, 2024-09-25 12:35:14.286
57.0, 117969.60150833149, 187500.0, 147165.09248794228, 132686.23592689467, 57128.667191108136, 107301.91854261381, 115558.47413044861, 119929.804793573, -0.228, 0.866, 0.458, 192.0, 0.0, 0.0, 0.0, 0.0, 0.0, 0.0, 0.0, 0.0, 0.0, 1.7272857142913487E9, 0.0, 2024-09-25 12:35:14.291
58.0, 117989.53926438562, 187500.0, 147142.94190918707, 132681.1620809033, 57112.35041765576, 107296.21884777771, 115561.35750548333, 119925.1556307263, -0.228, 0.866, 0.458, 192.0, 0.0, 0.0, 0.0, 0.0, 0.0, 0.0, 0.0, 0.0, 0.0, 1.72728571429536E9, 0.0, 2024-09-25 12:35:14.295
59.0, 118007.68888088333, 187500.0, 147179.95639800507, 132696.6294880664, 57142.569976159335, 107301.1809350468, 115574.61208994534, 119923.12162198087, -0.222, 0.866, 0.47000000000000003, 192.0, 249.0, 16.0, 27.0, 16.0, 14.0, 176.0, 0.0, 0.0, 0.0, 1.7272857142982807E9, 0.0, 2024-09-25 12:35:14.298
60.0, 118000.87159882447, 187500.0, 147223.6987619041, 132713.3262411745, 57172.61072070727, 107319.46466201123, 115579.6859359367, 119949.54138392705, -0.222, 0.866, 0.47000000000000003, 192.0, 0.0, 0.0, 0.0, 0.0, 0.0, 0.0, 0.0, 0.0, 0.0, 1.727285714303303E9, 0.0, 2024-09-25 12:35:14.303
61.0, 117994.81427607707, 187500.0, 147197.9495522916, 132709.19116845026, 57152.985889075506, 107323.17505159082, 115585.40798251725, 119955.53165144107, -0.222, 0.866, 0.47000000000000003, 192.0, 0.0, 0.0, 0.0, 0.0, 0.0, 0.0, 0.0, 0.0, 0.0, 1.727285714307317E9, 0.0, 2024-09-25 12:35:14.307
62.0, 118006.07955528254, 187500.0, 147165.15954317566, 132705.7713515486, 57131.371752187224, 107319.73288294469, 115594.25927332156, 119942.6123431459, -0.222, 0.866, 0.47000000000000003, 192.0, 0.0, 0.0, 0.0, 0.0, 0.0, 0.0, 0.0, 0.0, 0.0, 1.7272857143123283E9, 0.0, 2024-09-25 12:35:14.312
63.0, 118032.94635211783, 187500.0, 147204.4539099281, 132719.76354357763, 57155.51163619896, 107329.1876708493, 115601.36712805834, 119948.42379670427, -0.222, 0.866, 0.47000000000000003, 192.0, 0.0, 0.0, 0.0, 0.0, 0.0, 0.0, 0.0, 0.0, 0.0, 1.7272857143153307E9, 0.0, 2024-09-25 12:35:14.315
64.0, 118035.78502366364, 187500.0, 147248.73271569406, 132730.09004951597, 57177.63986320971, 107340.76587447715, 115599.62369199083, 119963.55592770052, -0.222, 0.866, 0.47000000000000003, 192.0, 0.0, 0.0, 0.0, 0.0, 0.0, 0.0, 0.0, 0.0, 0.0, 1.7272857143183608E9, 0.0, 2024-09-25 12:35:14.318
65.0, 118026.7102154148, 187500.0, 147229.68902941814, 132729.66536637134, 57169.30266252788, 107343.82806346752, 115613.81704971995, 119965.63463993487, -0.222, 0.866, 0.47000000000000003, 192.0, 0.0, 0.0, 0.0, 0.0, 0.0, 0.0, 0.0, 0.0, 0.0, 1.7272857143213515E9, 0.0, 2024-09-25 12:35:14.321
66.0, 118030.17473580537, 187500.0, 147204.20804073906, 132726.96080529224, 57164.5417409589, 107347.15847339136, 115619.5390963005, 119977.25754705162, -0.222, 0.866, 0.47000000000000003, 192.0, 0.0, 0.0, 0.0, 0.0, 0.0, 0.0, 0.0, 0.0, 0.0, 1.7272857143253217E9, 0.0, 2024-09-25 12:35:14.325
67.0, 118050.49247151524, 187500.0, 147224.41401772667, 132735.78974435208, 57184.1442208462, 107352.65700252737, 115627.07163418194, 119983.33722154346, -0.222, 0.866, 0.47000000000000003, 192.0, 0.0, 0.0, 0.0, 0.0, 0.0, 0.0, 0.0, 0.0, 0.0, 1.7272857143284075E9, 0.0, 2024-09-25 12:35:14.328
68.0, 118061.33306757607, 187500.0, 147264.2671780905, 132747.5244101911, 57197.309398330384, 107359.5413398196, 115634.6935790412, 119983.60544247692, -0.222, 0.866, 0.47000000000000003, 192.0, 0.0, 0.0, 0.0, 0.0, 0.0, 0.0, 0.0, 0.0, 0.0, 1.7272857143333693E9, 0.0, 2024-09-25 12:35:14.333
69.0, 118054.73930296175, 187500.0, 147257.1593233537, 132749.82663987, 57188.79338369291, 107367.36445037895, 115636.79464302, 119986.64527972286, -0.232, 0.87, 0.466, 192.0, 248.0, 192.0, 27.0, 48.0, 14.0, 144.0, 0.0, 0.0, 0.0, 1.7272857143373747E9, 0.0, 2024-09-25 12:35:14.337
70.0, 118053.867584928, 187500.0, 147220.30129674688, 132740.64007289888, 57164.228816536524, 107364.34696487749, 115637.62165756484, 119985.9747273892, -0.232, 0.87, 0.466, 192.0, 0.0, 0.0, 0.0, 0.0, 0.0, 0.0, 0.0, 0.0, 0.0, 1.7272857143403838E9, 0.0, 2024-09-25 12:35:14.340
71.0, 118074.63235552698, 187500.0, 147225.62101192726, 132745.4233462123, 57171.4931334845, 107362.82704625453, 115643.88014601234, 119974.57533771699, -0.232, 0.87, 0.466, 192.0, 0.0, 0.0, 0.0, 0.0, 0.0, 0.0, 0.0, 0.0, 0.0, 1.7272857143443315E9, 0.0, 2024-09-25 12:35:14.344
72.0, 118084.4671230873, 187500.0, 147274.90660845122, 132756.06277657303, 57207.36768333527, 107371.85715101447, 115643.85779426788, 119989.34984080194, -0.232, 0.87, 0.466, 192.0, 0.0, 0.0, 0.0, 0.0, 0.0, 0.0, 0.0, 0.0, 0.0, 1.7272857143483741E9, 0.0, 2024-09-25 12:35:14.348
73.0, 118077.5157305617, 187500.0, 147279.28755036445, 132760.10844231944, 57213.00032293801, 107382.34011916402, 115648.3504949034, 119998.75992521763, -0.232, 0.87, 0.466, 192.0, 0.0, 0.0, 0.0, 0.0, 0.0, 0.0, 0.0, 0.0, 0.0, 1.7272857143524027E9, 0.0, 2024-09-25 12:35:14.352
74.0, 118068.64208801296, 187500.0, 147241.1554743237, 132758.90144811888, 57189.10630811528, 107385.73758432122, 115654.4972246286, 119999.76575371812, -0.232, 0.87, 0.466, 192.0, 0.0, 0.0, 0.0, 0.0, 0.0, 0.0, 0.0, 0.0, 0.0, 1.7272857143573928E9, 0.0, 2024-09-25 12:35:14.357
75.0, 118083.617756798, 187500.0, 147237.4003812552, 132764.86936388843, 57191.721462216556, 107388.06216574457, 115662.00741076558, 119998.60346300644, -0.232, 0.87, 0.466, 192.0, 0.0, 0.0, 0.0, 0.0, 0.0, 0.0, 0.0, 0.0, 0.0, 1.7272857143612862E9, 0.0, 2024-09-25 12:35:14.361
76.0, 118104.09195471907, 187500.0, 147282.6179602883, 132777.18517508332, 57224.1091399323, 107392.37605242444, 115665.67309685626, 119999.7210502292, -0.232, 0.87, 0.466, 192.0, 0.0, 0.0, 0.0, 0.0, 0.0, 0.0, 0.0, 0.0, 0.0, 1.727285714366424E9, 0.0, 2024-09-25 12:35:14.366
77.0, 118096.35825113753, 187500.0, 147302.08632970887, 132787.17640485484, 57237.05079997192, 107404.64716013041, 115666.88009105684, 120013.15444864685, -0.232, 0.87, 0.466, 192.0, 0.0, 0.0, 0.0, 0.0, 0.0, 0.0, 0.0, 0.0, 0.0, 1.7272857143694675E9, 0.0, 2024-09-25 12:35:14.369
78.0, 118082.79074225316, 187500.0, 147270.9727014271, 132778.6380384729, 57217.00128519551, 107409.76570961067, 115665.09195150042, 120031.46052735574, -0.232, 0.87, 0.466, 192.0, 0.0, 0.0, 0.0, 0.0, 0.0, 0.0, 0.0, 0.0, 0.0, 1.7272857143734152E9, 0.0, 2024-09-25 12:35:14.373
79.0, 118105.00837624173, 187500.0, 147246.36343078178, 132775.844070416, 57206.51831704597, 107400.1544594949, 115673.29504171552, 120011.99215793516, -0.232, 0.87, 0.466, 192.0, 0.0, 0.0, 0.0, 0.0, 0.0, 0.0, 0.0, 0.0, 0.0, 1.7272857143763704E9, 0.0, 2024-09-25 12:35:14.376
80.0, 118126.17547824091, 187500.0, 147296.00665521703, 132793.74781772468, 57250.26068094501, 107410.99505555572, 115681.67694588625, 120020.88815222838, -0.23, 0.862, 0.466, 192.0, 248.0, 208.0, 26.0, 240.0, 14.0, 144.0, 0.0, 0.0, 0.0, 1.7272857143804457E9, 0.0, 2024-09-25 12:35:14.380
81.0, 118117.61476011453, 187500.0, 147324.1251497418, 132802.35323933998, 57269.05849803192, 107422.19327952783, 115683.64389939832, 120034.29919890157, -0.23, 0.862, 0.466, 192.0, 0.0, 0.0, 0.0, 0.0, 0.0, 0.0, 0.0, 0.0, 0.0, 1.727285714384364E9, 0.0, 2024-09-25 12:35:14.384
82.0, 118108.15997220993, 187500.0, 147298.0630157069, 132803.18025388484, 57252.94289027964, 107430.77634939866, 115691.42230646877, 120047.39732115237, -0.23, 0.862, 0.466, 192.0, 0.0, 0.0, 0.0, 0.0, 0.0, 0.0, 0.0, 0.0, 0.0, 1.7272857143904572E9, 0.0, 2024-09-25 12:35:14.390
83.0, 118118.9782165263, 187500.0, 147281.18744864315, 132805.37072484146, 57247.24319544354, 107436.74426516824, 115700.02772808407, 120052.82879505501, -0.23, 0.862, 0.466, 192.0, 0.0, 0.0, 0.0, 0.0, 0.0, 0.0, 0.0, 0.0, 0.0, 1.7272857143934553E9, 0.0, 2024-09-25 12:35:14.393
84.0, 118142.89458309348, 187500.0, 147323.83457706388, 132817.61948080297, 57277.68627139166, 107444.94735538332, 115705.41449849779, 120062.70826610427, -0.23, 0.862, 0.466, 192.0, 0.0, 0.0, 0.0, 0.0, 0.0, 0.0, 0.0, 0.0, 0.0, 1.7272857143974571E9, 0.0, 2024-09-25 12:35:14.397
85.0, 118144.638019161, 187500.0, 147354.54587394546, 132826.7613442852, 57297.132289067784, 107448.52363449617, 115708.23081829915, 120067.87151907344, -0.23, 0.862, 0.466, 192.0, 0.0, 0.0, 0.0, 0.0, 0.0, 0.0, 0.0, 0.0, 0.0, 1.7272857144074762E9, 0.0, 2024-09-25 12:35:14.407
86.0, 118137.06077779064, 187500.0, 147326.6285451208, 132824.7049837953, 57280.793163870956, 107450.46823626378, 115711.27065554509, 120064.38464693842, -0.23, 0.862, 0.466, 192.0, 0.0, 0.0, 0.0, 0.0, 0.0, 0.0, 0.0, 0.0, 0.0, 1.7272857144104772E9, 0.0, 2024-09-25 12:35:14.410
87.0, 118144.59331567209, 187500.0, 147299.40412037424, 132821.3969256159, 57268.03031778697, 107448.70244845182, 115713.2152573127, 120064.71992310524, -0.23, 0.862, 0.466, 192.0, 0.0, 0.0, 0.0, 0.0, 0.0, 0.0, 0.0, 0.0, 0.0, 1.7272857144135249E9, 0.0, 2024-09-25 12:35:14.413
88.0, 118167.32503978313, 187500.0, 147327.00852477652, 132831.0975827095, 57292.103146565336, 107448.59068972954, 115720.97131263869, 120065.41282718335, -0.23, 0.862, 0.466, 192.0, 0.0, 0.0, 0.0, 0.0, 0.0, 0.0, 0.0, 0.0, 0.0, 1.7272857144165332E9, 0.0, 2024-09-25 12:35:14.416
89.0, 118173.96350788636, 187500.0, 147373.50015324357, 132848.28607419564, 57324.66963823672, 107463.1640271144, 115727.90035341983, 120079.2932604901, -0.23, 0.862, 0.466, 192.0, 0.0, 0.0, 0.0, 0.0, 0.0, 0.0, 0.0, 0.0, 0.0, 1.7272857144204962E9, 0.0, 2024-09-25 12:35:14.420
90.0, 118166.22980430482, 187500.0, 147366.70522292916, 132852.93523704234, 57318.031170133494, 107476.73153599877, 115733.26477208911, 120099.9462723668, -0.218, 0.852, 0.47000000000000003, 192.0, 249.0, 48.0, 26.0, 160.0, 14.0, 176.0, 0.0, 0.0, 0.0, 1.727285714423452E9, 0.0, 2024-09-25 12:35:14.423
91.0, 118171.08013285162, 187500.0, 147325.64506836477, 132848.17431547336, 57295.29944602245, 107472.73057374127, 115740.05970240352, 120090.87146411795, -0.218, 0.852, 0.47000000000000003, 192.0, 0.0, 0.0, 0.0, 0.0, 0.0, 0.0, 0.0, 0.0, 0.0, 1.7272857144265091E9, 0.0, 2024-09-25 12:35:14.426
92.0, 118190.66026099447, 187500.0, 147342.49828368405, 132857.45028942233, 57313.918449153716, 107475.21161737581, 115745.55823153953, 120090.87146411795, -0.218, 0.852, 0.47000000000000003, 192.0, 0.0, 0.0, 0.0, 0.0, 0.0, 0.0, 0.0, 0.0, 0.0, 1.7272857144295056E9, 0.0, 2024-09-25 12:35:14.429
93.0, 118196.02467966375, 187500.0, 147396.67891224372, 132872.69417914085, 57352.11758042784, 107489.53908557167, 115744.6641617613, 120118.2523510757, -0.218, 0.852, 0.47000000000000003, 192.0, 0.0, 0.0, 0.0, 0.0, 0.0, 0.0, 0.0, 0.0, 0.0, 1.727285714432462E9, 0.0, 2024-09-25 12:35:14.432
94.0, 118183.75357195779, 187500.0, 147385.01130163806, 132872.47066169628, 57343.713324512646, 107490.5225623277, 115749.62624903039, 120120.08519412103, -0.218, 0.852, 0.47000000000000003, 192.0, 0.0, 0.0, 0.0, 0.0, 0.0, 0.0, 0.0, 0.0, 0.0, 1.7272857144365025E9, 0.0, 2024-09-25 12:35:14.436
95.0, 118179.8420166781, 187500.0, 147348.55560643144, 132865.8098418486, 57323.46264403614, 107491.10370768353, 115754.23070838819, 120121.98509239973, -0.218, 0.852, 0.47000000000000003, 192.0, 0.0, 0.0, 0.0, 0.0, 0.0, 0.0, 0.0, 0.0, 0.0, 1.727285714445557E9, 0.0, 2024-09-25 12:35:14.445
96.0, 118200.58443553263, 187500.0, 147353.56239718944, 132865.18399300385, 57328.62589700531, 107487.28155938168, 115759.43866484627, 120119.7052144653, -0.218, 0.852, 0.47000000000000003, 192.0, 0.0, 0.0, 0.0, 0.0, 0.0, 0.0, 0.0, 0.0, 0.0, 1.7272857144485483E9, 0.0, 2024-09-25 12:35:14.448
97.0, 118216.11889792907, 187500.0, 147401.6857030017, 132881.9030978564, 57361.08062995442, 107498.7703560317, 115769.65341206234, 120123.16973485587, -0.218, 0.852, 0.47000000000000003, 192.0, 0.0, 0.0, 0.0, 0.0, 0.0, 0.0, 0.0, 0.0, 0.0, 1.7272857144515157E9, 0.0, 2024-09-25 12:35:14.451
98.0, 118213.36963336107, 187500.0, 147403.4961943026, 132890.4191124939, 57361.102981698874, 107508.96275150332, 115779.48817962268, 120122.14155461092, -0.218, 0.852, 0.47000000000000003, 192.0, 0.0, 0.0, 0.0, 0.0, 0.0, 0.0, 0.0, 0.0, 0.0, 1.7272857144545963E9, 0.0, 2024-09-25 12:35:14.454
99.0, 118206.23942687982, 187500.0, 147369.76741191954, 132882.08191181207, 57340.02528667752, 107510.16974570391, 115776.4706941212, 120129.65174074791, -0.218, 0.852, 0.47000000000000003, 192.0, 0.0, 0.0, 0.0, 0.0, 0.0, 0.0, 0.0, 0.0, 0.0, 1.727285714458578E9, 0.0, 2024-09-25 12:35:14.458
100.0, 118226.1548311895, 187500.0, 147364.40299325026, 132882.99833333472, 57346.06025768045, 107511.26498118222, 115785.0314122476, 120128.13182212494, -0.212, 0.844, 0.47000000000000003, 192.0, 249.0, 96.0, 26.0, 96.0, 14.0, 176.0, 0.0, 0.0, 0.0, 1.7272857144615371E9, 0.0, 2024-09-25 12:35:14.461
101.0, 118239.92350577397, 187500.0, 147415.63319154183, 132897.7281329308, 57386.65102561129, 107524.0278272662, 115791.334604184, 120143.7109880103, -0.212, 0.844, 0.47000000000000003, 192.0, 0.0, 0.0, 0.0, 0.0, 0.0, 0.0, 0.0, 0.0, 0.0, 1.7272857144666417E9, 0.0, 2024-09-25 12:35:14.466
102.0, 118228.72528180186, 187500.0, 147429.78184578204, 132903.1149033445, 57391.1437262468, 107527.91703080143, 115790.82051406152, 120151.84702299202, -0.212, 0.844, 0.47000000000000003, 192.0, 0.0, 0.0, 0.0, 0.0, 0.0, 0.0, 0.0, 0.0, 0.0, 1.727285714470584E9, 0.0, 2024-09-25 12:35:14.470
103.0, 118226.17718293396, 187500.0, 147392.61089475287, 132899.8739003985, 57366.37799339033, 107526.50887090074, 115794.97793853021, 120147.42137758987, -0.212, 0.844, 0.47000000000000003, 192.0, 0.0, 0.0, 0.0, 0.0, 0.0, 0.0, 0.0, 0.0, 0.0, 1.7272857144745004E9, 0.0, 2024-09-25 12:35:14.474
104.0, 118237.17424120597, 187500.0, 147380.1386213468, 132898.80101666463, 57365.28275791201, 107526.08418775609, 115796.25198796416, 120151.15411891391, -0.212, 0.844, 0.47000000000000003, 192.0, 0.0, 0.0, 0.0, 0.0, 0.0, 0.0, 0.0, 0.0, 0.0, 1.7272857144775949E9, 0.0, 2024-09-25 12:35:14.477
105.0, 118256.73201760436, 187500.0, 147421.55640382247, 132911.1838830929, 57393.6471216258, 107531.35919944754, 115802.10814501144, 120154.73039802676, -0.212, 0.844, 0.47000000000000003, 192.0, 0.0, 0.0, 0.0, 0.0, 0.0, 0.0, 0.0, 0.0, 0.0, 1.727285714480559E9, 0.0, 2024-09-25 12:35:14.480
106.0, 118254.78741583675, 187500.0, 147455.1510757388, 132926.71834548932, 57413.78604338003, 107547.25128975527, 115806.35497645797, 120171.78477904615, -0.212, 0.844, 0.47000000000000003, 192.0, 0.0, 0.0, 0.0, 0.0, 0.0, 0.0, 0.0, 0.0, 0.0, 1.727285714485512E9, 0.0, 2024-09-25 12:35:14.485
107.0, 118248.35011343363, 187500.0, 147427.94900273668, 132925.26548209973, 57397.22340073865, 107551.85574911306, 115805.95264505777, 120182.5136163847, -0.212, 0.844, 0.47000000000000003, 192.0, 0.0, 0.0, 0.0, 0.0, 0.0, 0.0, 0.0, 0.0, 0.0, 1.7272857144886143E9, 0.0, 2024-09-25 12:35:14.488
108.0, 118261.98467755136, 187500.0, 147396.88007794382, 132921.59979600905, 57381.59953136439, 107543.3844379645, 115811.3841189604, 120169.68371506737, -0.212, 0.844, 0.47000000000000003, 192.0, 0.0, 0.0, 0.0, 0.0, 0.0, 0.0, 0.0, 0.0, 0.0, 1.7272857144926214E9, 0.0, 2024-09-25 12:35:14.492
109.0, 118282.54828245024, 187500.0, 147432.01702022756, 132933.33446184808, 57410.43328171173, 107550.51464444574, 115819.16252603085, 120168.43201737787, -0.212, 0.844, 0.47000000000000003, 192.0, 0.0, 0.0, 0.0, 0.0, 0.0, 0.0, 0.0, 0.0, 0.0, 1.7272857144965873E9, 0.0, 2024-09-25 12:35:14.496
110.0, 118283.82233188419, 187500.0, 147474.57474167045, 132947.79604051067, 57436.22719481316, 107565.5350167197, 115820.45892720926, 120188.41447692091, -0.20800000000000002, 0.852, 0.468, 192.0, 249.0, 128.0, 26.0, 160.0, 14.0, 160.0, 0.0, 0.0, 0.0, 1.7272857145005813E9, 0.0, 2024-09-25 12:35:14.500
111.0, 118277.60854692562, 187500.0, 147455.2628344611, 132944.3315201201, 57420.536270205535, 107567.74783942079, 115822.62704642142, 120200.97615730479, -0.20800000000000002, 0.852, 0.468, 192.0, 0.0, 0.0, 0.0, 0.0, 0.0, 0.0, 0.0, 0.0, 0.0, 1.7272857145056262E9, 0.0, 2024-09-25 12:35:14.505
112.0, 118289.1196953201, 187500.0, 147411.85574672886, 132933.84855197056, 57396.910476316276, 107556.68372591541, 115829.17610754682, 120178.69146808285, -0.20800000000000002, 0.852, 0.468, 192.0, 0.0, 0.0, 0.0, 0.0, 0.0, 0.0, 0.0, 0.0, 0.0, 1.7272857145086E9, 0.0, 2024-09-25 12:35:14.508
113.0, 118307.87280891811, 187500.0, 147444.1987209557, 132948.44424109987, 57424.67134292977, 107565.91499637545, 115839.16733731834, 120186.82750306457, -0.20800000000000002, 0.852, 0.468, 192.0, 0.0, 0.0, 0.0, 0.0, 0.0, 0.0, 0.0, 0.0, 0.0, 1.7272857145127068E9, 0.0, 2024-09-25 12:35:14.512
114.0, 118314.91360842153, 187500.0, 147489.19278254424, 132965.632732586, 57451.493436276134, 107578.56608373715, 115842.40834026437, 120195.56703514661, -0.20800000000000002, 0.852, 0.468, 192.0, 0.0, 0.0, 0.0, 0.0, 0.0, 0.0, 0.0, 0.0, 0.0, 1.7272857145166445E9, 0.0, 2024-09-25 12:35:14.516
115.0, 118304.74356469436, 187500.0, 147482.35314874092, 132970.21484019933, 57445.23494782865, 107591.50774377678, 115848.95740138978, 120213.29196849966, -0.20800000000000002, 0.852, 0.468, 192.0, 0.0, 0.0, 0.0, 0.0, 0.0, 0.0, 0.0, 0.0, 0.0, 1.727285714521705E9, 0.0, 2024-09-25 12:35:14.521
116.0, 118307.06814611772, 187500.0, 147450.32309893647, 132966.41504364193, 57428.06880808697, 107592.44651704389, 115854.41122703686, 120218.25405576875, -0.20800000000000002, 0.852, 0.468, 192.0, 0.0, 0.0, 0.0, 0.0, 0.0, 0.0, 0.0, 0.0, 0.0, 1.7272857145256712E9, 0.0, 2024-09-25 12:35:14.525
117.0, 118327.27412310531, 187500.0, 147466.1034305219, 132973.16527046743, 57442.21746232718, 107594.32406357814, 115860.15562536188, 120221.51741045922, -0.20800000000000002, 0.852, 0.468, 192.0, 0.0, 0.0, 0.0, 0.0, 0.0, 0.0, 0.0, 0.0, 0.0, 1.7272857145286832E9, 0.0, 2024-09-25 12:35:14.528
118.0, 118340.61811454513, 187500.0, 147515.2102130902, 132989.54909915317, 57475.074526676486, 107604.09177590511, 115869.18573012183, 120232.40271000896, -0.20800000000000002, 0.852, 0.468, 192.0, 0.0, 0.0, 0.0, 0.0, 0.0, 0.0, 0.0, 0.0, 0.0, 1.7272857145326185E9, 0.0, 2024-09-25 12:35:14.532
119.0, 118333.39850108606, 187500.0, 147513.60088748945, 132995.80758760066, 57471.94528245274, 107610.37261609705, 115874.97483193575, 120240.71755894633, -0.20800000000000002, 0.852, 0.468, 192.0, 0.0, 0.0, 0.0, 0.0, 0.0, 0.0, 0.0, 0.0, 0.0, 1.7272857145376697E9, 0.0, 2024-09-25 12:35:14.537
120.0, 118330.49277430687, 187500.0, 147472.54073292503, 132987.15746249646, 57447.67128797428, 107607.4445375734, 115882.46266632828, 120234.52612573221, -0.20800000000000002, 0.852, 0.468, 192.0, 0.0, 0.0, 0.0, 0.0, 0.0, 0.0, 0.0, 0.0, 0.0, 1.7272857145407326E9, 0.0, 2024-09-25 12:35:14.540
121.0, 118341.51218432334, 187500.0, 147479.4697737062, 132986.37515144053, 57456.83550320095, 107607.6009997846, 115886.44127684132, 120234.72729143231, -0.214, 0.852, 0.462, 192.0, 249.0, 80.0, 26.0, 160.0, 14.0, 112.0, 0.0, 0.0, 0.0, 1.7272857145447168E9, 0.0, 2024-09-25 12:35:14.544
122.0, 118359.39357988759, 187500.0, 147523.5697655165, 132996.03110504523, 57484.082279691975, 107610.03733993022, 115888.8552652425, 120235.37549202151, -0.214, 0.852, 0.462, 192.0, 0.0, 0.0, 0.0, 0.0, 0.0, 0.0, 0.0, 0.0, 0.0, 1.7272857145486784E9, 0.0, 2024-09-25 12:35:14.548
123.0, 118352.93392574, 187500.0, 147534.5668237885, 133004.03302956023, 57489.37964312788, 107621.14615692451, 115888.8552652425, 120251.22287884032, -0.214, 0.852, 0.462, 192.0, 0.0, 0.0, 0.0, 0.0, 0.0, 0.0, 0.0, 0.0, 0.0, 1.7272857145527463E9, 0.0, 2024-09-25 12:35:14.552
124.0, 118341.78040525681, 187500.0, 147498.62521870437, 133003.9436225824, 57469.41953532929, 107622.97899996984, 115897.21481766878, 120257.39196031, -0.214, 0.852, 0.462, 192.0, 0.0, 0.0, 0.0, 0.0, 0.0, 0.0, 0.0, 0.0, 0.0, 1.7272857145566869E9, 0.0, 2024-09-25 12:35:14.556
125.0, 118354.85617576315, 187500.0, 147490.93621861175, 133005.70941039437, 57468.99485218464, 107620.43090110194, 115904.21091368329, 120252.45222478536, -0.214, 0.852, 0.462, 192.0, 0.0, 0.0, 0.0, 0.0, 0.0, 0.0, 0.0, 0.0, 0.0, 1.7272857145596647E9, 0.0, 2024-09-25 12:35:14.559
126.0, 118365.31679216825, 187500.0, 147537.69606801224, 133016.30413726618, 57501.76250955612, 107626.84585176062, 115903.98739623874, 120261.66114350095, -0.214, 0.852, 0.462, 192.0, 0.0, 0.0, 0.0, 0.0, 0.0, 0.0, 0.0, 0.0, 0.0, 1.7272857145697193E9, 0.0, 2024-09-25 12:35:14.569
127.0, 118358.74537929839, 187500.0, 147554.77280077612, 133022.58497745811, 57513.4748236507, 107636.0994739651, 115907.16134395139, 120274.5357483072, -0.214, 0.852, 0.462, 192.0, 0.0, 0.0, 0.0, 0.0, 0.0, 0.0, 0.0, 0.0, 0.0, 1.7272857145732543E9, 0.0, 2024-09-25 12:35:14.573
128.0, 118352.82216701773, 187500.0, 147520.59698350396, 133019.0981053231, 57492.888867007365, 107640.94980251191, 115910.91643701989, 120283.65526004496, -0.214, 0.852, 0.462, 192.0, 0.0, 0.0, 0.0, 0.0, 0.0, 0.0, 0.0, 0.0, 0.0, 1.7272857145757616E9, 0.0, 2024-09-25 12:35:14.575
129.0, 118369.3401061702, 187500.0, 147500.23454430516, 133020.93094836842, 57484.976349470184, 107639.13931121104, 115924.81922207109, 120275.51922506324, -0.214, 0.852, 0.462, 192.0, 0.0, 0.0, 0.0, 0.0, 0.0, 0.0, 0.0, 0.0, 0.0, 1.7272857145797803E9, 0.0, 2024-09-25 12:35:14.579
130.0, 118383.6899261105, 187500.0, 147545.6309372939, 133031.86095140708, 57518.05693126404, 107645.19663395842, 115928.6637221174, 120284.41521935645, -0.214, 0.852, 0.462, 192.0, 0.0, 0.0, 0.0, 0.0, 0.0, 0.0, 0.0, 0.0, 0.0, 1.7272857145827024E9, 0.0, 2024-09-25 12:35:14.582
131.0, 118383.35464994368, 187500.0, 147573.57061786304, 133040.3546143001, 57535.1336640279, 107652.99739277332, 115930.87654481847, 120293.91471074996, -0.216, 0.854, 0.466, 192.0, 249.0, 64.0, 26.0, 176.0, 14.0, 144.0, 0.0, 0.0, 0.0, 1.7272857145857415E9, 0.0, 2024-09-25 12:35:14.585
132.0, 118379.71131559747, 187500.0, 147547.1285041724, 133041.18162884493, 57518.392207430865, 107657.78066608676, 115938.09615827753, 120296.3957543845, -0.216, 0.854, 0.466, 192.0, 0.0, 0.0, 0.0, 0.0, 0.0, 0.0, 0.0, 0.0, 0.0, 1.7272857145897498E9, 0.0, 2024-09-25 12:35:14.589
133.0, 118388.67436512404, 187500.0, 147517.53479451357, 133041.4051462895, 57502.85774503443, 107654.3608491851, 115944.89108859195, 120282.80589375566, -0.216, 0.854, 0.466, 192.0, 0.0, 0.0, 0.0, 0.0, 0.0, 0.0, 0.0, 0.0, 0.0, 1.7272857145928004E9, 0.0, 2024-09-25 12:35:14.592
134.0, 118408.70152815599, 187500.0, 147558.9302252448, 133056.09024239663, 57534.686629138785, 107666.38608770205, 115948.42266421589, 120296.88749276251, -0.216, 0.854, 0.466, 192.0, 0.0, 0.0, 0.0, 0.0, 0.0, 0.0, 0.0, 0.0, 0.0, 1.727285714597788E9, 0.0, 2024-09-25 12:35:14.597
135.0, 118414.11065031418, 187500.0, 147599.27512398662, 133069.41188209198, 57555.652565437864, 107678.6124919191, 115952.2224607733, 120304.55414111068, -0.216, 0.854, 0.466, 192.0, 0.0, 0.0, 0.0, 0.0, 0.0, 0.0, 0.0, 0.0, 0.0, 1.7272857146007476E9, 0.0, 2024-09-25 12:35:14.600
136.0, 118401.57132167475, 187500.0, 147582.0866325005, 133070.03773093675, 57543.11323679844, 107685.34036700016, 115956.89397536445, 120309.85150454659, -0.216, 0.854, 0.466, 192.0, 0.0, 0.0, 0.0, 0.0, 0.0, 0.0, 0.0, 0.0, 0.0, 1.727285714604746E9, 0.0, 2024-09-25 12:35:14.604
137.0, 118405.86285661017, 187500.0, 147542.4346378368, 133061.07468141016, 57518.99570453116, 107677.15962852951, 115959.53148121017, 120301.20137944238, -0.216, 0.854, 0.466, 192.0, 0.0, 0.0, 0.0, 0.0, 0.0, 0.0, 0.0, 0.0, 0.0, 1.7272857146088269E9, 0.0, 2024-09-25 12:35:14.608
138.0, 118431.27679005585, 187500.0, 147566.55217010406, 133067.86961172457, 57538.91110884084, 107681.42881172047, 115961.3196207666, 120302.58718759862, -0.216, 0.854, 0.466, 192.0, 0.0, 0.0, 0.0, 0.0, 0.0, 0.0, 0.0, 0.0, 0.0, 1.727285714612821E9, 0.0, 2024-09-25 12:35:14.612
139.0, 118434.83071742425, 187500.0, 147613.9378683493, 133080.07366419717, 57569.935330144806, 107694.63869269357, 115963.26422253421, 120317.92048429495, -0.216, 0.854, 0.466, 192.0, 0.0, 0.0, 0.0, 0.0, 0.0, 0.0, 0.0, 0.0, 0.0, 1.727285714616826E9, 0.0, 2024-09-25 12:35:14.616
140.0, 118420.1009178282, 187500.0, 147604.46072870024, 133086.153338689, 57563.498027741676, 107707.31213179971, 115971.19909181586, 120329.67750187845, -0.216, 0.854, 0.466, 192.0, 0.0, 0.0, 0.0, 0.0, 0.0, 0.0, 0.0, 0.0, 0.0, 1.7272857146208568E9, 0.0, 2024-09-25 12:35:14.620
141.0, 118424.66067369709, 187500.0, 147560.74071654567, 133082.68881829845, 57539.33579198549, 107702.88648639758, 115981.3244320541, 120317.51815289476, -0.224, 0.848, 0.468, 192.0, 249.0, 0.0, 26.0, 128.0, 14.0, 160.0, 0.0, 0.0, 0.0, 1.7272857146237988E9, 0.0, 2024-09-25 12:35:14.623
142.0, 118450.11931063168, 187500.0, 147576.78926906458, 133088.94730674592, 57556.47957998271, 107702.10417534164, 115989.81809494711, 120321.07208026315, -0.224, 0.848, 0.468, 192.0, 0.0, 0.0, 0.0, 0.0, 0.0, 0.0, 0.0, 0.0, 0.0, 1.7272857146278496E9, 0.0, 2024-09-25 12:35:14.627
143.0, 118461.33988634824, 187500.0, 147631.19341506882, 133103.83356855318, 57591.795336222094, 107714.15176560305, 115995.16016187194, 120338.79701361622, -0.224, 0.848, 0.468, 192.0, 0.0, 0.0, 0.0, 0.0, 0.0, 0.0, 0.0, 0.0, 0.0, 1.7272857146337771E9, 0.0, 2024-09-25 12:35:14.633
144.0, 118447.28063908586, 187500.0, 147633.85327265898, 133107.23103371038, 57589.58251352102, 107720.79023370627, 115993.50613278225, 120355.91844986899, -0.224, 0.848, 0.468, 192.0, 0.0, 0.0, 0.0, 0.0, 0.0, 0.0, 0.0, 0.0, 0.0, 1.727285714636802E9, 0.0, 2024-09-25 12:35:14.636
145.0, 118450.52164203188, 187500.0, 147588.12160350342, 133101.8666150411, 57560.30172828457, 107714.06235862522, 115999.31758634062, 120342.97678982935, -0.224, 0.848, 0.468, 192.0, 0.0, 0.0, 0.0, 0.0, 0.0, 0.0, 0.0, 0.0, 0.0, 1.7272857146408308E9, 0.0, 2024-09-25 12:35:14.640
146.0, 118468.24657538494, 187500.0, 147589.50741165967, 133104.03473425328, 57565.21911206473, 107713.19064059146, 116001.88803695298, 120336.22656300386, -0.224, 0.848, 0.468, 192.0, 0.0, 0.0, 0.0, 0.0, 0.0, 0.0, 0.0, 0.0, 0.0, 1.7272857146438732E9, 0.0, 2024-09-25 12:35:14.643
147.0, 118480.18240692407, 187500.0, 147644.82797918655, 133121.04441178375, 57601.27247587115, 107727.38399832058, 116007.09599341107, 120348.94470559893, -0.224, 0.848, 0.468, 192.0, 0.0, 0.0, 0.0, 0.0, 0.0, 0.0, 0.0, 0.0, 0.0, 1.7272857146478767E9, 0.0, 2024-09-25 12:35:14.647
148.0, 118463.88798521615, 187500.0, 147662.7540782397, 133127.28054848677, 57609.67673178634, 107742.80670199475, 116008.19122888938, 120374.71626695589, -0.224, 0.848, 0.468, 192.0, 0.0, 0.0, 0.0, 0.0, 0.0, 0.0, 0.0, 0.0, 0.0, 1.7272857146518989E9, 0.0, 2024-09-25 12:35:14.651
149.0, 118464.26796487189, 187500.0, 147614.0943305605, 133117.75870534882, 57579.94891166079, 107735.09535015767, 116017.55660981615, 120357.23720279185, -0.224, 0.848, 0.468, 192.0, 0.0, 0.0, 0.0, 0.0, 0.0, 0.0, 0.0, 0.0, 0.0, 1.7272857146558957E9, 0.0, 2024-09-25 12:35:14.655
150.0, 118473.05220044282, 187500.0, 147608.4393392133, 133116.19408323694, 57581.87116168394, 107738.7833879928, 116018.5847900611, 120364.16624357298, -0.224, 0.848, 0.468, 192.0, 0.0, 0.0, 0.0, 0.0, 0.0, 0.0, 0.0, 0.0, 0.0, 1.727285714660888E9, 0.0, 2024-09-25 12:35:14.660
151.0, 118495.6721658316, 187500.0, 147651.8017234566, 133129.18044676547, 57610.97313296475, 107745.01952469582, 116024.15037443046, 120364.412112762, -0.24, 0.844, 0.47400000000000003, 192.0, 248.0, 128.0, 26.0, 96.0, 14.0, 208.0, 0.0, 0.0, 0.0, 1.7272857146649027E9, 0.0, 2024-09-25 12:35:14.664
152.0, 118489.03369772837, 187500.0, 147675.7627935127, 133140.80335388225, 57624.49593836021, 107759.4363998695, 116027.99487447679, 120377.57729024618, -0.24, 0.844, 0.47400000000000003, 192.0, 0.0, 0.0, 0.0, 0.0, 0.0, 0.0, 0.0, 0.0, 0.0, 1.7272857146678848E9, 0.0, 2024-09-25 12:35:14.667
153.0, 118484.49629360394, 187500.0, 147640.78231344014, 133140.37867073758, 57601.20542063778, 107762.36447839314, 116033.20283093487, 120378.18078734647, -0.24, 0.844, 0.47400000000000003, 192.0, 0.0, 0.0, 0.0, 0.0, 0.0, 0.0, 0.0, 0.0, 0.0, 1.7272857146719034E9, 0.0, 2024-09-25 12:35:14.671
154.0, 118490.9112442626, 187500.0, 147622.63269694243, 133135.61774916862, 57594.1422693899, 107758.56468183573, 116034.29806641318, 120380.77358970328, -0.24, 0.844, 0.47400000000000003, 192.0, 0.0, 0.0, 0.0, 0.0, 0.0, 0.0, 0.0, 0.0, 0.0, 1.7272857146759284E9, 0.0, 2024-09-25 12:35:14.675
155.0, 118512.23480847297, 187500.0, 147658.66370900438, 133143.03852832777, 57623.71362730428, 107759.97284173642, 116039.17074670443, 120383.12052287109, -0.24, 0.844, 0.47400000000000003, 192.0, 0.0, 0.0, 0.0, 0.0, 0.0, 0.0, 0.0, 0.0, 0.0, 1.727285714679916E9, 0.0, 2024-09-25 12:35:14.679
156.0, 118518.24742773145, 187500.0, 147686.08929945104, 133154.8849528891, 57641.237394957236, 107769.87466453013, 116045.31747642964, 120390.04956365224, -0.24, 0.844, 0.47400000000000003, 192.0, 0.0, 0.0, 0.0, 0.0, 0.0, 0.0, 0.0, 0.0, 0.0, 1.727285714683996E9, 0.0, 2024-09-25 12:35:14.683
157.0, 118512.54773289536, 187500.0, 147658.73076423776, 133152.76153716585, 57622.19370868131, 107773.11566747614, 116051.55361313268, 120388.8202177072, -0.24, 0.844, 0.47400000000000003, 192.0, 0.0, 0.0, 0.0, 0.0, 0.0, 0.0, 0.0, 0.0, 0.0, 1.7272857146899524E9, 0.0, 2024-09-25 12:35:14.689
158.0, 118511.13957299467, 187500.0, 147635.68611570433, 133149.40877549755, 57614.41530161087, 107775.93198727751, 116054.6381538675, 120395.83866546616, -0.24, 0.844, 0.47400000000000003, 192.0, 0.0, 0.0, 0.0, 0.0, 0.0, 0.0, 0.0, 0.0, 0.0, 1.7272857146939385E9, 0.0, 2024-09-25 12:35:14.693
159.0, 118531.50201219345, 187500.0, 147668.4984765647, 133157.0754238457, 57640.052752501106, 107782.190475725, 116055.8451480681, 120404.35468010363, -0.24, 0.844, 0.47400000000000003, 192.0, 0.0, 0.0, 0.0, 0.0, 0.0, 0.0, 0.0, 0.0, 0.0, 1.727285714697014E9, 0.0, 2024-09-25 12:35:14.697
160.0, 118543.41549198813, 187500.0, 147710.98914277426, 133171.0899676192, 57662.67271788987, 107795.17683925353, 116058.16972949145, 120416.51402908732, -0.24, 0.844, 0.47400000000000003, 192.0, 0.0, 0.0, 0.0, 0.0, 0.0, 0.0, 0.0, 0.0, 0.0, 1.7272857147009902E9, 0.0, 2024-09-25 12:35:14.700
161.0, 118530.74205288196, 187500.0, 147693.04069197664, 133173.50395602037, 57649.7087061058, 107802.66467364607, 116062.8412440826, 120426.28174141429, -0.24, 0.844, 0.47400000000000003, 192.0, 0.0, 0.0, 0.0, 0.0, 0.0, 0.0, 0.0, 0.0, 0.0, 1.7272857147049713E9, 0.0, 2024-09-25 12:35:14.704
162.0, 118536.9334860961, 187500.0, 147650.68413623385, 133172.09579611968, 57629.54743260711, 107798.01551079936, 116075.62644191104, 120410.9707964624, -0.244, 0.842, 0.484, 192.0, 248.0, 96.0, 26.0, 80.0, 15.0, 32.0, 0.0, 0.0, 0.0, 1.7272857147099843E9, 0.0, 2024-09-25 12:35:14.709
163.0, 118556.62537296122, 187500.0, 147671.89594172192, 133178.01900840033, 57651.67565961787, 107797.63553114362, 116080.52147394675, 120414.5247238308, -0.244, 0.842, 0.484, 192.0, 0.0, 0.0, 0.0, 0.0, 0.0, 0.0, 0.0, 0.0, 0.0, 1.727285714714954E9, 0.0, 2024-09-25 12:35:14.714
164.0, 118562.77210268643, 187500.0, 147722.29912546865, 133191.05007541776, 57685.44914548983, 107808.3420167377, 116083.76247689278, 120435.87063978561, -0.244, 0.842, 0.484, 192.0, 0.0, 0.0, 0.0, 0.0, 0.0, 0.0, 0.0, 0.0, 0.0, 1.7272857147180092E9, 0.0, 2024-09-25 12:35:14.718
165.0, 118551.05978859184, 187500.0, 147714.05133176464, 133190.8936132066, 57680.308244265114, 107813.16999354005, 116087.76343915028, 120448.83465156969, -0.244, 0.842, 0.484, 192.0, 0.0, 0.0, 0.0, 0.0, 0.0, 0.0, 0.0, 0.0, 0.0, 1.7272857147219968E9, 0.0, 2024-09-25 12:35:14.721
166.0, 118548.04230309038, 187500.0, 147669.83958123202, 133179.20365085645, 57655.18488349735, 107806.75504288138, 116089.70804091789, 120444.16313697853, -0.244, 0.842, 0.484, 192.0, 0.0, 0.0, 0.0, 0.0, 0.0, 0.0, 0.0, 0.0, 0.0, 1.72728571472501E9, 0.0, 2024-09-25 12:35:14.725
167.0, 118564.29202130939, 187500.0, 147675.62868304594, 133178.3319328227, 57663.879712090464, 107803.8940195911, 116090.55740720719, 120438.82107005372, -0.244, 0.842, 0.484, 192.0, 0.0, 0.0, 0.0, 0.0, 0.0, 0.0, 0.0, 0.0, 0.0, 1.7272857147278955E9, 0.0, 2024-09-25 12:35:14.727
168.0, 118572.9421464136, 187500.0, 147735.866634353, 133197.59913654317, 57703.95638989883, 107823.49649947841, 116091.92086361896, 120465.8890325891, -0.244, 0.842, 0.484, 192.0, 0.0, 0.0, 0.0, 0.0, 0.0, 0.0, 0.0, 0.0, 0.0, 1.7272857147319891E9, 0.0, 2024-09-25 12:35:14.731
169.0, 118565.81193993235, 187500.0, 147734.54788143013, 133200.25899413336, 57697.094404351046, 107825.46345299047, 116095.83241889864, 120468.32537273472, -0.244, 0.842, 0.484, 192.0, 0.0, 0.0, 0.0, 0.0, 0.0, 0.0, 0.0, 0.0, 0.0, 1.7272857147359672E9, 0.0, 2024-09-25 12:35:14.735
170.0, 118566.12486435472, 187500.0, 147691.5654768426, 133194.31343010825, 57672.57454068358, 107824.5023279789, 116106.6059597261, 120457.66359062954, -0.244, 0.842, 0.484, 192.0, 0.0, 0.0, 0.0, 0.0, 0.0, 0.0, 0.0, 0.0, 0.0, 1.7272857147400284E9, 0.0, 2024-09-25 12:35:14.740
171.0, 118582.53104478492, 187500.0, 147695.49938386673, 133198.15793015456, 57682.23049428827, 107830.31378153728, 116113.19972434042, 120462.71508487644, -0.244, 0.842, 0.484, 192.0, 0.0, 0.0, 0.0, 0.0, 0.0, 0.0, 0.0, 0.0, 0.0, 1.7272857147449925E9, 0.0, 2024-09-25 12:35:14.744
172.0, 118591.89642571169, 187500.0, 147743.39917223444, 133207.52331108134, 57709.43256729038, 107834.33709553923, 116112.17154409547, 120468.77240762382, -0.25, 0.842, 0.47800000000000004, 192.0, 248.0, 48.0, 26.0, 80.0, 14.0, 240.0, 0.0, 0.0, 0.0, 1.7272857147480204E9, 0.0, 2024-09-25 12:35:14.748
173.0, 118585.45912330857, 187500.0, 147754.19506480635, 133213.22300591745, 57712.78532895867, 107840.64028747563, 116113.57970399615, 120470.94052683598, -0.25, 0.842, 0.47800000000000004, 192.0, 0.0, 0.0, 0.0, 0.0, 0.0, 0.0, 0.0, 0.0, 0.0, 1.72728571475197E9, 0.0, 2024-09-25 12:35:14.751
174.0, 118586.06262040886, 187500.0, 147712.08437825256, 133207.63506980363, 57687.32669202408, 107839.2991828083, 116118.25121858732, 120461.10575927566, -0.25, 0.842, 0.47800000000000004, 192.0, 0.0, 0.0, 0.0, 0.0, 0.0, 0.0, 0.0, 0.0, 0.0, 1.7272857147569947E9, 0.0, 2024-09-25 12:35:14.756
175.0, 118606.40270786319, 187500.0, 147698.24864843473, 133208.35032562618, 57686.34321526805, 107836.16993858457, 116126.0072739133, 120449.84048007018, -0.25, 0.842, 0.47800000000000004, 192.0, 0.0, 0.0, 0.0, 0.0, 0.0, 0.0, 0.0, 0.0, 0.0, 1.7272857147610488E9, 0.0, 2024-09-25 12:35:14.761
176.0, 118619.00909173598, 187500.0, 147747.06485832512, 133217.0898577082, 57719.870831951004, 107840.88615666464, 116123.14625062303, 120455.71898886193, -0.25, 0.842, 0.47800000000000004, 192.0, 0.0, 0.0, 0.0, 0.0, 0.0, 0.0, 0.0, 0.0, 0.0, 1.727285714764994E9, 0.0, 2024-09-25 12:35:14.764
177.0, 118617.93620800212, 187500.0, 147777.08325112858, 133231.3949741596, 57737.81928274862, 107855.30303183831, 116129.62825651506, 120472.12516929212, -0.25, 0.842, 0.47800000000000004, 192.0, 0.0, 0.0, 0.0, 0.0, 0.0, 0.0, 0.0, 0.0, 0.0, 1.727285714767988E9, 0.0, 2024-09-25 12:35:14.767
178.0, 118609.10726894227, 187500.0, 147737.34184948707, 133229.8974072811, 57711.26541033571, 107857.58290977275, 116139.79830024223, 120464.27970698831, -0.25, 0.842, 0.47800000000000004, 192.0, 0.0, 0.0, 0.0, 0.0, 0.0, 0.0, 0.0, 0.0, 0.0, 1.7272857147720487E9, 0.0, 2024-09-25 12:35:14.772
179.0, 118622.27244642645, 187500.0, 147712.33024744157, 133228.66806133607, 57702.50352650923, 107856.64413650562, 116146.95085846793, 120456.30013421776, -0.25, 0.842, 0.47800000000000004, 192.0, 0.0, 0.0, 0.0, 0.0, 0.0, 0.0, 0.0, 0.0, 0.0, 1.727285714776086E9, 0.0, 2024-09-25 12:35:14.776
180.0, 118638.76803383447, 187500.0, 147757.8831026415, 133240.33567194172, 57736.031143192195, 107862.99203193093, 116146.92850672347, 120470.29232624678, -0.25, 0.842, 0.47800000000000004, 192.0, 0.0, 0.0, 0.0, 0.0, 0.0, 0.0, 0.0, 0.0, 0.0, 1.7272857147800124E9, 0.0, 2024-09-25 12:35:14.780
181.0, 118636.06347275538, 187500.0, 147791.0754431576, 133250.215142991, 57753.68902131188, 107872.49152332444, 116149.54366082474, 120477.82486412823, -0.25, 0.842, 0.47800000000000004, 192.0, 0.0, 0.0, 0.0, 0.0, 0.0, 0.0, 0.0, 0.0, 0.0, 1.7272857147839909E9, 0.0, 2024-09-25 12:35:14.783
182.0, 118628.03919649593, 187500.0, 147768.88016091348, 133250.3492534577, 57739.36155311603, 107878.88412223865, 116153.32110563769, 120489.91715787855, -0.246, 0.8320000000000001, 0.47200000000000003, 192.0, 248.0, 80.0, 26.0, 0.0, 14.0, 192.0, 0.0, 0.0, 0.0, 1.7272857147880468E9, 0.0, 2024-09-25 12:35:14.788
183.0, 118634.0965192433, 187500.0, 147736.29131749767, 133243.68843361002, 57723.55886978613, 107873.94438671404, 116158.6631725625, 120491.10180033468, -0.246, 0.8320000000000001, 0.47200000000000003, 192.0, 0.0, 0.0, 0.0, 0.0, 0.0, 0.0, 0.0, 0.0, 0.0, 1.7272857147920744E9, 0.0, 2024-09-25 12:35:14.792
184.0, 118652.33554271884, 187500.0, 147767.47200101282, 133253.92553257055, 57749.91157649894, 107878.70530828301, 116166.44157963296, 120497.65086146008, -0.246, 0.8320000000000001, 0.47200000000000003, 192.0, 0.0, 0.0, 0.0, 0.0, 0.0, 0.0, 0.0, 0.0, 0.0, 1.727285714796018E9, 0.0, 2024-09-25 12:35:14.796
185.0, 118661.4103509677, 187500.0, 147814.25420215778, 133273.17038454657, 57780.689928613894, 107895.04443347985, 116176.99160301586, 120517.61096925868, -0.246, 0.8320000000000001, 0.47200000000000003, 192.0, 0.0, 0.0, 0.0, 0.0, 0.0, 0.0, 0.0, 0.0, 0.0, 1.7272857148000073E9, 0.0, 2024-09-25 12:35:14.800
186.0, 118658.72814163307, 187500.0, 147797.7362630053, 133276.59020144824, 57768.84350405259, 107901.10175622723, 116186.33463219818, 120520.2931785933, -0.246, 0.8320000000000001, 0.47200000000000003, 192.0, 0.0, 0.0, 0.0, 0.0, 0.0, 0.0, 0.0, 0.0, 0.0, 1.7272857148041265E9, 0.0, 2024-09-25 12:35:14.804
187.0, 118665.32190624738, 187500.0, 147764.00748062224, 133273.7068264135, 57750.783294532695, 107901.43703239407, 116192.01197528983, 120515.75577446888, -0.246, 0.8320000000000001, 0.47200000000000003, 192.0, 0.0, 0.0, 0.0, 0.0, 0.0, 0.0, 0.0, 0.0, 0.0, 1.7272857148070357E9, 0.0, 2024-09-25 12:35:14.807
188.0, 118690.75819143752, 187500.0, 147793.6235420255, 133288.213108565, 57775.97371053383, 107917.64204712416, 116197.26463523682, 120532.54193455481, -0.246, 0.8320000000000001, 0.47200000000000003, 192.0, 0.0, 0.0, 0.0, 0.0, 0.0, 0.0, 0.0, 0.0, 0.0, 1.7272857148120823E9, 0.0, 2024-09-25 12:35:14.812
189.0, 118702.20228459864, 187500.0, 147845.09960950608, 133309.69313498653, 57811.736501662315, 107938.8762043567, 116207.00999581933, 120559.02875173435, -0.246, 0.8320000000000001, 0.47200000000000003, 192.0, 0.0, 0.0, 0.0, 0.0, 0.0, 0.0, 0.0, 0.0, 0.0, 1.7272857148161716E9, 0.0, 2024-09-25 12:35:14.816
190.0, 118694.87091241729, 187500.0, 147838.5952518696, 133316.6668792566, 57805.522716703745, 107950.8343876403, 116216.86711512413, 120573.55738563031, -0.246, 0.8320000000000001, 0.47200000000000003, 192.0, 0.0, 0.0, 0.0, 0.0, 0.0, 0.0, 0.0, 0.0, 0.0, 1.72728571482016E9, 0.0, 2024-09-25 12:35:14.820
191.0, 118694.49093276155, 187500.0, 147797.7809664942, 133310.22957685348, 57781.04755652518, 107947.10164631625, 116219.59402794768, 120571.23280420696, -0.246, 0.8320000000000001, 0.47200000000000003, 192.0, 0.0, 0.0, 0.0, 0.0, 0.0, 0.0, 0.0, 0.0, 0.0, 1.7272857148241687E9, 0.0, 2024-09-25 12:35:14.824
192.0, 118704.75038346654, 187500.0, 147804.55354506418, 133308.28497508587, 57790.05530954067, 107944.35238174825, 116214.58723718968, 120569.958754773, -0.244, 0.8300000000000001, 0.47800000000000004, 192.0, 248.0, 96.0, 25.0, 240.0, 14.0, 240.0, 0.0, 0.0, 0.0, 1.7272857148280976E9, 0.0, 2024-09-25 12:35:14.828
193.0, 118711.05357540293, 187500.0, 147852.27451947625, 133314.20818736652, 57819.53726047722, 107949.15800680614, 116209.20046677596, 120577.80421707682, -0.244, 0.8300000000000001, 0.47800000000000004, 192.0, 0.0, 0.0, 0.0, 0.0, 0.0, 0.0, 0.0, 0.0, 0.0, 1.7272857148320754E9, 0.0, 2024-09-25 12:35:14.832
194.0, 118700.23533108656, 187500.0, 147847.91592930746, 133312.44239955454, 57812.63057144053, 107945.33585850429, 116211.99443483287, 120579.70411535552, -0.244, 0.8300000000000001, 0.47800000000000004, 192.0, 0.0, 0.0, 0.0, 0.0, 0.0, 0.0, 0.0, 0.0, 0.0, 1.7272857148351803E9, 0.0, 2024-09-25 12:35:14.835
195.0, 118693.2615868165, 187500.0, 147798.69738801688, 133303.43464653907, 57786.233161238815, 107935.27757349939, 116219.43756573649, 120569.48936813943, -0.244, 0.8300000000000001, 0.47800000000000004, 192.0, 0.0, 0.0, 0.0, 0.0, 0.0, 0.0, 0.0, 0.0, 0.0, 1.7272857148401415E9, 0.0, 2024-09-25 12:35:14.840
196.0, 118709.31013933542, 187500.0, 147793.10945190306, 133307.14503611863, 57789.83179209612, 107934.36115197673, 116226.12073732863, 120560.97335350196, -0.244, 0.8300000000000001, 0.47800000000000004, 192.0, 0.0, 0.0, 0.0, 0.0, 0.0, 0.0, 0.0, 0.0, 0.0, 1.7272857148441076E9, 0.0, 2024-09-25 12:35:14.844
197.0, 118717.66969176171, 187500.0, 147848.0947432631, 133321.24898686993, 57823.761740179274, 107946.65461142715, 116224.176135561, 120578.02773452137, -0.244, 0.8300000000000001, 0.47800000000000004, 192.0, 0.0, 0.0, 0.0, 0.0, 0.0, 0.0, 0.0, 0.0, 0.0, 1.7272857148481264E9, 0.0, 2024-09-25 12:35:14.848
198.0, 118707.67846199019, 187500.0, 147869.17243828447, 133330.0779259298, 57834.736446706826, 107961.63028021221, 116221.33746401519, 120603.37461273368, -0.244, 0.8300000000000001, 0.47800000000000004, 192.0, 0.0, 0.0, 0.0, 0.0, 0.0, 0.0, 0.0, 0.0, 0.0, 1.7272857148542068E9, 0.0, 2024-09-25 12:35:14.854
199.0, 118703.02929914348, 187500.0, 147828.2463941868, 133325.49581831644, 57810.30599001718, 107959.66332670013, 116230.56873447524, 120601.25119701042, -0.244, 0.8300000000000001, 0.47800000000000004, 192.0, 0.0, 0.0, 0.0, 0.0, 0.0, 0.0, 0.0, 0.0, 0.0, 1.7272857148572035E9, 0.0, 2024-09-25 12:35:14.857
200.0, 118722.67648251969, 187500.0, 147812.26489690124, 133325.00407993843, 57805.81328938166, 107957.74107667698, 116236.84957466717, 120591.63994689465, -0.244, 0.8300000000000001, 0.47800000000000004, 192.0, 0.0, 0.0, 0.0, 0.0, 0.0, 0.0, 0.0, 0.0, 0.0, 1.727285714861324E9, 0.0, 2024-09-25 12:35:14.861
201.0, 118747.68808456518, 187500.0, 147853.28034797675, 133335.3752893657, 57831.07076061616, 107959.75273367796, 116238.41419677905, 120586.6108043922, -0.244, 0.8300000000000001, 0.47800000000000004, 192.0, 0.0, 0.0, 0.0, 0.0, 0.0, 0.0, 0.0, 0.0, 0.0, 1.7272857148651571E9, 0.0, 2024-09-25 12:35:14.865
202.0, 118741.31783739541, 187500.0, 147879.8565721341, 133345.88060925968, 57844.57121426716, 107969.74396344948, 116244.5385747598, 120592.37755446168, -0.244, 0.8300000000000001, 0.47800000000000004, 192.0, 0.0, 0.0, 0.0, 0.0, 0.0, 0.0, 0.0, 0.0, 0.0, 1.7272857148692293E9, 0.0, 2024-09-25 12:35:14.869
203.0, 118729.80668900094, 187500.0, 147853.12388576556, 133345.45592611504, 57829.081455359636, 107978.0364606424, 116254.46274929795, 120603.28520575586, -0.23600000000000002, 0.8280000000000001, 0.48, 192.0, 248.0, 160.0, 25.0, 224.0, 15.0, 0.0, 0.0, 0.0, 0.0, 1.7272857148732285E9, 0.0, 2024-09-25 12:35:14.873
204.0, 118738.4791658496, 187500.0, 147827.1958621974, 133340.38208012367, 57816.02803659774, 107976.96357690854, 116257.68140049952, 120600.4688859545, -0.23600000000000002, 0.8280000000000001, 0.48, 192.0, 0.0, 0.0, 0.0, 0.0, 0.0, 0.0, 0.0, 0.0, 0.0, 1.7272857148792582E9, 0.0, 2024-09-25 12:35:14.879
205.0, 118756.06998873592, 187500.0, 147867.6525196615, 133350.79799303986, 57843.54303402222, 107982.95384442256, 116259.8942232006, 120610.10248781473, -0.23600000000000002, 0.8280000000000001, 0.48, 192.0, 0.0, 0.0, 0.0, 0.0, 0.0, 0.0, 0.0, 0.0, 0.0, 1.7272857148822083E9, 0.0, 2024-09-25 12:35:14.882
206.0, 118752.20313694516, 187500.0, 147905.06933987967, 133362.06327224532, 57866.766496511285, 107992.989777683, 116262.55408079078, 120623.6699966991, -0.23600000000000002, 0.8280000000000001, 0.48, 192.0, 0.0, 0.0, 0.0, 0.0, 0.0, 0.0, 0.0, 0.0, 0.0, 1.7272857148851843E9, 0.0, 2024-09-25 12:35:14.885
207.0, 118748.24687817656, 187500.0, 147875.98972034332, 133361.6832925896, 57845.80056021221, 107994.19677188358, 116268.25377562687, 120621.72539493149, -0.23600000000000002, 0.8280000000000001, 0.48, 192.0, 0.0, 0.0, 0.0, 0.0, 0.0, 0.0, 0.0, 0.0, 0.0, 1.7272857148891716E9, 0.0, 2024-09-25 12:35:14.889
208.0, 118751.24201193357, 187500.0, 147841.16570248196, 133356.9223710206, 57832.25540307229, 107991.15693463766, 116275.6969065305, 120616.7186041735, -0.23600000000000002, 0.8280000000000001, 0.48, 192.0, 0.0, 0.0, 0.0, 0.0, 0.0, 0.0, 0.0, 0.0, 0.0, 1.7272857148921747E9, 0.0, 2024-09-25 12:35:14.892
209.0, 118771.71620985464, 187500.0, 147867.0043190723, 133365.6171996137, 57856.618804528574, 107995.35906259526, 116280.3460693772, 120612.67293842709, -0.23600000000000002, 0.8280000000000001, 0.48, 192.0, 0.0, 0.0, 0.0, 0.0, 0.0, 0.0, 0.0, 0.0, 0.0, 1.7272857148952773E9, 0.0, 2024-09-25 12:35:14.895
210.0, 118777.6394221353, 187500.0, 147909.94202017094, 133378.3800456977, 57885.05022347572, 108007.7419290235, 116284.45879035698, 120624.85463915524, -0.23600000000000002, 0.8280000000000001, 0.48, 192.0, 0.0, 0.0, 0.0, 0.0, 0.0, 0.0, 0.0, 0.0, 0.0, 1.7272857149002664E9, 0.0, 2024-09-25 12:35:14.900
211.0, 118774.0854947669, 187500.0, 147889.66898795, 133382.0904352773, 57872.577950069666, 108010.2900278914, 116292.12543870514, 120620.74191817545, -0.23600000000000002, 0.8280000000000001, 0.48, 192.0, 0.0, 0.0, 0.0, 0.0, 0.0, 0.0, 0.0, 0.0, 0.0, 1.7272857149042008E9, 0.0, 2024-09-25 12:35:14.904
212.0, 118772.99025928859, 187500.0, 147852.9450718099, 133379.5870398983, 57854.13776089404, 108009.08303369083, 116293.08656371673, 120617.70208092954, -0.23600000000000002, 0.8280000000000001, 0.48, 192.0, 0.0, 0.0, 0.0, 0.0, 0.0, 0.0, 0.0, 0.0, 0.0, 1.7272857149083E9, 0.0, 2024-09-25 12:35:14.908
213.0, 118789.41879146323, 187500.0, 147874.49215346482, 133386.44902544608, 57873.3602611256, 108015.1403564382, 116293.26537767237, 120627.29097930086, -0.228, 0.8180000000000001, 0.48, 192.0, 248.0, 224.0, 25.0, 144.0, 15.0, 0.0, 0.0, 0.0, 0.0, 1.7272857149113214E9, 0.0, 2024-09-25 12:35:14.911
214.0, 118803.61214919235, 187500.0, 147921.14024414305, 133400.32945875282, 57900.36116842761, 108024.43868213161, 116297.08752597423, 120636.29873231635, -0.228, 0.8180000000000001, 0.48, 192.0, 0.0, 0.0, 0.0, 0.0, 0.0, 0.0, 0.0, 0.0, 0.0, 1.7272857149152415E9, 0.0, 2024-09-25 12:35:14.915
215.0, 118790.75989613056, 187500.0, 147914.79234871775, 133402.02819133142, 57896.00257825883, 108031.21126070157, 116299.61327309767, 120646.35701732124, -0.228, 0.8180000000000001, 0.48, 192.0, 0.0, 0.0, 0.0, 0.0, 0.0, 0.0, 0.0, 0.0, 0.0, 1.727285714919248E9, 0.0, 2024-09-25 12:35:14.919
216.0, 118788.63648040731, 187500.0, 147873.08399356413, 133395.9932203285, 57871.393307613536, 108024.751606554, 116301.87079928766, 120643.71951147552, -0.228, 0.8180000000000001, 0.48, 192.0, 0.0, 0.0, 0.0, 0.0, 0.0, 0.0, 0.0, 0.0, 0.0, 1.7272857149232864E9, 0.0, 2024-09-25 12:35:14.923
217.0, 118809.4459544952, 187500.0, 147881.01886284578, 133402.56463319834, 57881.40688912951, 108024.70690306507, 116307.36932842367, 120644.0771393868, -0.228, 0.8180000000000001, 0.48, 192.0, 0.0, 0.0, 0.0, 0.0, 0.0, 0.0, 0.0, 0.0, 0.0, 1.7272857149292457E9, 0.0, 2024-09-25 12:35:14.929
218.0, 118819.97362613365, 187500.0, 147931.84672973715, 133415.28277579343, 57914.12984301208, 108034.78753981442, 116309.58215112475, 120653.35311333575, -0.228, 0.8180000000000001, 0.48, 192.0, 0.0, 0.0, 0.0, 0.0, 0.0, 0.0, 0.0, 0.0, 0.0, 1.7272857149322815E9, 0.0, 2024-09-25 12:35:14.932
219.0, 118815.86090515387, 187500.0, 147928.158691902, 133418.34496478378, 57909.21245923191, 108037.22387996006, 116313.76192733788, 120648.77100572242, -0.228, 0.8180000000000001, 0.48, 192.0, 0.0, 0.0, 0.0, 0.0, 0.0, 0.0, 0.0, 0.0, 0.0, 1.7272857149362664E9, 0.0, 2024-09-25 12:35:14.936
220.0, 118809.87063763985, 187500.0, 147888.84197340513, 133410.00776410196, 57885.3631478981, 108035.32398168136, 116315.90769480559, 120647.85458419974, -0.228, 0.8180000000000001, 0.48, 192.0, 0.0, 0.0, 0.0, 0.0, 0.0, 0.0, 0.0, 0.0, 0.0, 1.7272857149393384E9, 0.0, 2024-09-25 12:35:14.939
221.0, 118823.84047792442, 187500.0, 147882.62818844654, 133406.05150533337, 57882.68093856346, 108032.3511996688, 116318.09816576222, 120642.51251727492, -0.228, 0.8180000000000001, 0.48, 192.0, 0.0, 0.0, 0.0, 0.0, 0.0, 0.0, 0.0, 0.0, 0.0, 1.7272857149443405E9, 0.0, 2024-09-25 12:35:14.944
222.0, 118835.48573678563, 187500.0, 147932.24906113735, 133416.17684557164, 57914.286305223264, 108039.28024044994, 116320.69096811903, 120651.31910459032, -0.228, 0.8180000000000001, 0.48, 192.0, 0.0, 0.0, 0.0, 0.0, 0.0, 0.0, 0.0, 0.0, 0.0, 1.727285714950349E9, 0.0, 2024-09-25 12:35:14.950
223.0, 118831.46242278368, 187500.0, 147954.3325846592, 133423.77643868644, 57924.65751465053, 108051.81956908936, 116326.21184899949, 120672.75442752296, -0.23800000000000002, 0.8240000000000001, 0.484, 192.0, 248.0, 144.0, 25.0, 192.0, 15.0, 32.0, 0.0, 0.0, 0.0, 1.7272857149533725E9, 0.0, 2024-09-25 12:35:14.953
224.0, 118830.32248381645, 187500.0, 147917.09457839665, 133421.16128458516, 57901.54581088374, 108050.52316791096, 116332.98442756945, 120676.75538978046, -0.23800000000000002, 0.8240000000000001, 0.484, 192.0, 0.0, 0.0, 0.0, 0.0, 0.0, 0.0, 0.0, 0.0, 0.0, 1.7272857149572885E9, 0.0, 2024-09-25 12:35:14.957
225.0, 118839.03966415401, 187500.0, 147897.00036013132, 133418.07674385034, 57896.87429629258, 108046.9468887981, 116339.15350903911, 120670.72041877752, -0.23800000000000002, 0.8240000000000001, 0.484, 192.0, 0.0, 0.0, 0.0, 0.0, 0.0, 0.0, 0.0, 0.0, 0.0, 1.7272857149603412E9, 0.0, 2024-09-25 12:35:14.960
226.0, 118856.09404517342, 187500.0, 147938.4628460959, 133428.91733991116, 57925.12690128409, 108051.12666501125, 116343.713264908, 120671.34626762227, -0.23800000000000002, 0.8240000000000001, 0.484, 192.0, 0.0, 0.0, 0.0, 0.0, 0.0, 0.0, 0.0, 0.0, 0.0, 1.727285714964396E9, 0.0, 2024-09-25 12:35:14.964
227.0, 118855.1552719063, 187500.0, 147969.04003251076, 133441.23315110602, 57941.063695080724, 108065.11885704027, 116347.35659925421, 120686.6348608297, -0.23800000000000002, 0.8240000000000001, 0.484, 192.0, 0.0, 0.0, 0.0, 0.0, 0.0, 0.0, 0.0, 0.0, 0.0, 1.7272857149673927E9, 0.0, 2024-09-25 12:35:14.967
228.0, 118850.17083289276, 187500.0, 147935.3559536166, 133433.4994475245, 57917.437901191464, 108065.34237448483, 116350.79876790033, 120687.81950328583, -0.23800000000000002, 0.8240000000000001, 0.484, 192.0, 0.0, 0.0, 0.0, 0.0, 0.0, 0.0, 0.0, 0.0, 0.0, 1.7272857149713948E9, 0.0, 2024-09-25 12:35:14.971
229.0, 118856.94341146272, 187500.0, 147912.91480218348, 133427.77740094395, 57907.64783712004, 108067.37638323026, 116355.3138202803, 120697.63191910171, -0.23800000000000002, 0.8240000000000001, 0.484, 192.0, 0.0, 0.0, 0.0, 0.0, 0.0, 0.0, 0.0, 0.0, 0.0, 1.7272857149753604E9, 0.0, 2024-09-25 12:35:14.975
230.0, 118873.48370235965, 187500.0, 147953.90790151453, 133443.17775287363, 57937.1744915455, 108075.69123216764, 116364.8133116738, 120709.83597157431, -0.23800000000000002, 0.8240000000000001, 0.484, 192.0, 0.0, 0.0, 0.0, 0.0, 0.0, 0.0, 0.0, 0.0, 0.0, 1.7272857149793968E9, 0.0, 2024-09-25 12:35:14.979
231.0, 118868.52161509058, 187500.0, 147994.2751520008, 133461.32736937134, 57957.13459934409, 108088.45407825161, 116371.02709663239, 120720.38599495722, -0.23800000000000002, 0.8240000000000001, 0.484, 192.0, 0.0, 0.0, 0.0, 0.0, 0.0, 0.0, 0.0, 0.0, 0.0, 1.727285714984354E9, 0.0, 2024-09-25 12:35:14.984
232.0, 118858.26216438558, 187500.0, 147966.20136096494, 133459.1592501592, 57936.92862235649, 108091.60567421981, 116375.65390773462, 120718.12846876723, -0.23800000000000002, 0.8240000000000001, 0.484, 192.0, 0.0, 0.0, 0.0, 0.0, 0.0, 0.0, 0.0, 0.0, 0.0, 1.7272857149883091E9, 0.0, 2024-09-25 12:35:14.988
233.0, 118861.01142895358, 187500.0, 147929.0527616802, 133453.9065902122, 57915.917982568506, 108086.44242125064, 116383.20879736052, 120710.05948901887, -0.24, 0.8180000000000001, 0.492, 192.0, 248.0, 128.0, 25.0, 144.0, 15.0, 96.0, 0.0, 0.0, 0.0, 1.7272857149923418E9, 0.0, 2024-09-25 12:35:14.992
234.0, 118879.51867336259, 187500.0, 147956.94773876044, 133460.83563099333, 57933.91113685503, 108088.2082090626, 116384.79577121686, 120717.01088154447, -0.24, 0.8180000000000001, 0.492, 192.0, 0.0, 0.0, 0.0, 0.0, 0.0, 0.0, 0.0, 0.0, 0.0, 1.727285714995336E9, 0.0, 2024-09-25 12:35:14.995
235.0, 118888.61583335589, 187500.0, 147997.5832101802, 133474.33608464434, 57957.5816342332, 108100.3675580463, 116399.972605702, 120714.30632046537, -0.24, 0.8180000000000001, 0.492, 192.0, 0.0, 0.0, 0.0, 0.0, 0.0, 0.0, 0.0, 0.0, 0.0, 1.727285714999332E9, 0.0, 2024-09-25 12:35:14.999
236.0, 118883.69844957572, 187500.0, 147983.4792594289, 133480.21459343607, 57948.909157384536, 108112.88453494127, 116412.60134131926, 120718.50844842297, -0.24, 0.8180000000000001, 0.492, 192.0, 0.0, 0.0, 0.0, 0.0, 0.0, 0.0, 0.0, 0.0, 0.0, 1.7272857150033615E9, 0.0, 2024-09-25 12:35:15.003
237.0, 118880.8597780299, 187500.0, 147947.20237817793, 133475.25250616702, 57932.45827346543, 108113.62214250829, 116414.45653610904, 120721.1459542687, -0.24, 0.8180000000000001, 0.492, 192.0, 0.0, 0.0, 0.0, 0.0, 0.0, 0.0, 0.0, 0.0, 0.0, 1.7272857150073707E9, 0.0, 2024-09-25 12:35:15.007
238.0, 118893.30969969151, 187500.0, 147966.51428538733, 133478.44880562412, 57948.30566028424, 108114.29269484195, 116411.41669886312, 120729.90783809518, -0.24, 0.8180000000000001, 0.492, 192.0, 0.0, 0.0, 0.0, 0.0, 0.0, 0.0, 0.0, 0.0, 0.0, 1.7272857150114088E9, 0.0, 2024-09-25 12:35:15.011
239.0, 118898.40589742732, 187500.0, 148019.3985127686, 133491.502224386, 57980.20159962197, 108124.26157286901, 116414.12125994221, 120748.99622786001, -0.24, 0.8180000000000001, 0.492, 192.0, 0.0, 0.0, 0.0, 0.0, 0.0, 0.0, 0.0, 0.0, 0.0, 1.7272857150164084E9, 0.0, 2024-09-25 12:35:15.016
240.0, 118893.28734794706, 187500.0, 148011.55305046478, 133496.3078494439, 57973.33961407419, 108128.03901768196, 116429.96864676103, 120743.65416093518, -0.24, 0.8180000000000001, 0.492, 192.0, 0.0, 0.0, 0.0, 0.0, 0.0, 0.0, 0.0, 0.0, 0.0, 1.7272857150193908E9, 0.0, 2024-09-25 12:35:15.019
241.0, 118886.9618042662, 187500.0, 147969.06238425523, 133490.6528580967, 57947.61275620613, 108128.10607291533, 116437.07650149781, 120739.34027425532, -0.24, 0.8180000000000001, 0.492, 192.0, 0.0, 0.0, 0.0, 0.0, 0.0, 0.0, 0.0, 0.0, 0.0, 1.7272857150234332E9, 0.0, 2024-09-25 12:35:15.023
242.0, 118904.55262715253, 187500.0, 147966.40252666504, 133490.0046575075, 57948.618584706615, 108124.64155252476, 116441.52449864442, 120727.98558807203, -0.24, 0.8180000000000001, 0.492, 192.0, 0.0, 0.0, 0.0, 0.0, 0.0, 0.0, 0.0, 0.0, 0.0, 1.7272857150274477E9, 0.0, 2024-09-25 12:35:15.027
243.0, 118912.39808945634, 187500.0, 148022.41599827004, 133502.5663378914, 57985.52131480233, 108135.01276195202, 116441.32333294432, 120743.58710570182, -0.24, 0.8180000000000001, 0.492, 192.0, 0.0, 0.0, 0.0, 0.0, 0.0, 0.0, 0.0, 0.0, 0.0, 1.7272857150314412E9, 0.0, 2024-09-25 12:35:15.031
244.0, 118900.99869978413, 187500.0, 148031.96019315245, 133505.27089897048, 57987.60002703667, 108145.026343468, 116443.69261785658, 120758.02633261995, -0.246, 0.8180000000000001, 0.49, 192.0, 248.0, 80.0, 25.0, 144.0, 15.0, 80.0, 0.0, 0.0, 0.0, 1.7272857150355065E9, 0.0, 2024-09-25 12:35:15.035
245.0, 118898.98704278315, 187500.0, 147987.45786994195, 133498.0065820225, 57959.16860808952, 108142.23237541108, 116447.55946964736, 120751.94665812812, -0.246, 0.8180000000000001, 0.49, 192.0, 0.0, 0.0, 0.0, 0.0, 0.0, 0.0, 0.0, 0.0, 0.0, 1.727285715039512E9, 0.0, 2024-09-25 12:35:15.039
246.0, 118914.9238365798, 187500.0, 147971.92340754552, 133491.68103834166, 57954.340631287174, 108131.21296539462, 116449.01233303695, 120734.91462885316, -0.246, 0.8180000000000001, 0.49, 192.0, 0.0, 0.0, 0.0, 0.0, 0.0, 0.0, 0.0, 0.0, 0.0, 1.7272857150454729E9, 0.0, 2024-09-25 12:35:15.045
247.0, 118931.6205896879, 187500.0, 148022.9971436259, 133501.89578555772, 57989.589332293195, 108137.76202652002, 116446.9336208026, 120743.87767837975, -0.246, 0.8180000000000001, 0.49, 192.0, 0.0, 0.0, 0.0, 0.0, 0.0, 0.0, 0.0, 0.0, 0.0, 1.7272857150485065E9, 0.0, 2024-09-25 12:35:15.048
248.0, 118927.30670300803, 187500.0, 148045.77357122584, 133514.68098338618, 58002.08395744371, 108150.68133481519, 116454.62262089523, 120757.31107679738, -0.246, 0.8180000000000001, 0.49, 192.0, 0.0, 0.0, 0.0, 0.0, 0.0, 0.0, 0.0, 0.0, 0.0, 1.7272857150515249E9, 0.0, 2024-09-25 12:35:15.051
249.0, 118916.48845869166, 187500.0, 148011.26247778683, 133512.9598990631, 57978.79343972128, 108156.15751220674, 116460.72464713153, 120762.98841988904, -0.246, 0.8180000000000001, 0.49, 192.0, 0.0, 0.0, 0.0, 0.0, 0.0, 0.0, 0.0, 0.0, 0.0, 1.7272857150555253E9, 0.0, 2024-09-25 12:35:15.055
250.0, 118925.27269426259, 187500.0, 147988.28488448678, 133506.0532100264, 57967.081125626704, 108150.14489294826, 116458.57887966382, 120759.0992163538, -0.246, 0.8180000000000001, 0.49, 192.0, 0.0, 0.0, 0.0, 0.0, 0.0, 0.0, 0.0, 0.0, 0.0, 1.727285715059433E9, 0.0, 2024-09-25 12:35:15.059
251.0, 118945.29985729455, 187500.0, 148027.91452740604, 133515.35153571982, 57992.22683813892, 108151.9777359936, 116462.06575179884, 120754.248887807, -0.246, 0.8180000000000001, 0.49, 192.0, 0.0, 0.0, 0.0, 0.0, 0.0, 0.0, 0.0, 0.0, 0.0, 1.7272857150634477E9, 0.0, 2024-09-25 12:35:15.063
252.0, 118936.85089789044, 187500.0, 148063.43144934555, 133527.7120504036, 58012.924553504534, 108166.37225942282, 116463.80918786635, 120771.6608967377, -0.246, 0.8180000000000001, 0.49, 192.0, 0.0, 0.0, 0.0, 0.0, 0.0, 0.0, 0.0, 0.0, 0.0, 1.7272857150674667E9, 0.0, 2024-09-25 12:35:15.067
253.0, 118927.99960708614, 187500.0, 148030.06029487375, 133522.14646603423, 57991.10925091616, 108165.4334861557, 116462.3339727323, 120776.89120494023, -0.246, 0.8180000000000001, 0.49, 192.0, 0.0, 0.0, 0.0, 0.0, 0.0, 0.0, 0.0, 0.0, 0.0, 1.7272857150715575E9, 0.0, 2024-09-25 12:35:15.071
254.0, 118937.02971184609, 187500.0, 147996.15269853506, 133517.98904156554, 57975.01599490834, 108157.76683780752, 116467.07254255684, 120764.17306234516, -0.248, 0.8260000000000001, 0.5, 192.0, 248.0, 64.0, 25.0, 208.0, 15.0, 160.0, 0.0, 0.0, 0.0, 1.7272857150755038E9, 0.0, 2024-09-25 12:35:15.075
255.0, 118954.62053473241, 187500.0, 148031.66962047454, 133528.8743411153, 57999.98289346491, 108165.6346518558, 116471.05115306989, 120767.21289959109, -0.248, 0.8260000000000001, 0.5, 192.0, 0.0, 0.0, 0.0, 0.0, 0.0, 0.0, 0.0, 0.0, 0.0, 1.7272857150785315E9, 0.0, 2024-09-25 12:35:15.078
0.0, 118957.95094465626, 187500.0, 148074.78613552882, 133543.4700302446, 58024.81568155476, 108176.94463455018, 116475.67796417212, 120779.72987648606, -0.248, 0.8260000000000001, 0.5, 192.0, 0.0, 0.0, 0.0, 0.0, 0.0, 0.0, 0.0, 0.0, 0.0, 1.727285715083505E9, 0.0, 2024-09-25 12:35:15.083
1.0, 118949.54668874106, 187500.0, 148049.5957195277, 133541.95011162164, 58008.43185286902, 108177.36931769483, 116479.61187119626, 120779.10402764131, -0.248, 0.8260000000000001, 0.5, 192.0, 0.0, 0.0, 0.0, 0.0, 0.0, 0.0, 0.0, 0.0, 0.0, 1.7272857150875316E9, 0.0, 2024-09-25 12:35:15.087
2.0, 118954.19585158776, 187500.0, 148015.06227434424, 133537.79268715295, 57988.605855537164, 108173.97185253762, 116484.41749625416, 120772.68907698263, -0.248, 0.8260000000000001, 0.5, 192.0, 0.0, 0.0, 0.0, 0.0, 0.0, 0.0, 0.0, 0.0, 0.0, 1.7272857150915294E9, 0.0, 2024-09-25 12:35:15.091
3.0, 118976.9275756988, 187500.0, 148047.38289682663, 133551.85193441535, 58011.18111743702, 108183.69486137568, 116486.63031895523, 120780.35572533081, -0.248, 0.8260000000000001, 0.5, 192.0, 0.0, 0.0, 0.0, 0.0, 0.0, 0.0, 0.0, 0.0, 0.0, 1.7272857150975256E9, 0.0, 2024-09-25 12:35:15.097
4.0, 118978.96158444425, 187500.0, 148096.98141777294, 133567.60991425635, 58041.02069628486, 108197.32942549342, 116494.83340917033, 120798.19241740614, -0.248, 0.8260000000000001, 0.5, 192.0, 0.0, 0.0, 0.0, 0.0, 0.0, 0.0, 0.0, 0.0, 0.0, 1.7272857151005626E9, 0.0, 2024-09-25 12:35:15.100
5.0, 118970.26675585113, 187500.0, 148078.7423942974, 133569.59921951286, 58025.3968269106, 108197.0388528155, 116500.06371737288, 120794.97376620458, -0.248, 0.8260000000000001, 0.5, 192.0, 0.0, 0.0, 0.0, 0.0, 0.0, 0.0, 0.0, 0.0, 0.0, 1.7272857151035151E9, 0.0, 2024-09-25 12:35:15.103
6.0, 118973.48540705269, 187500.0, 148035.2458995874, 133564.4806700326, 57999.580562064715, 108193.37316672482, 116499.66138597268, 120784.26728061048, -0.248, 0.8260000000000001, 0.5, 192.0, 0.0, 0.0, 0.0, 0.0, 0.0, 0.0, 0.0, 0.0, 0.0, 1.7272857151085289E9, 0.0, 2024-09-25 12:35:15.108
7.0, 118989.37749736042, 187500.0, 148051.13798989513, 133568.90631543475, 58013.43864362701, 108197.6870534047, 116500.55545575089, 120788.49176031254, -0.248, 0.8260000000000001, 0.5, 192.0, 0.0, 0.0, 0.0, 0.0, 0.0, 0.0, 0.0, 0.0, 0.0, 1.7272857151115255E9, 0.0, 2024-09-25 12:35:15.111
8.0, 118997.42412536433, 187500.0, 148103.68694110954, 133582.9208592082, 58047.63681264363, 108208.50529772107, 116505.22697034205, 120802.84158025285, -0.244, 0.8220000000000001, 0.5, 192.0, 248.0, 96.0, 25.0, 176.0, 15.0, 160.0, 0.0, 0.0, 0.0, 1.727285715115576E9, 0.0, 2024-09-25 12:35:15.115
9.0, 118985.39888684737, 187500.0, 148100.62475211915, 133584.28431562, 58042.98764979692, 108213.24386754559, 116507.77506920995, 120815.89499901474, -0.244, 0.8220000000000001, 0.5, 192.0, 0.0, 0.0, 0.0, 0.0, 0.0, 0.0, 0.0, 0.0, 0.0, 1.727285715119508E9, 0.0, 2024-09-25 12:35:15.119
10.0, 118991.59032006148, 187500.0, 148047.53935903782, 133573.9354579372, 58010.063530214255, 108202.20210578467, 116515.41936581366, 120792.91740571469, -0.244, 0.8220000000000001, 0.5, 192.0, 0.0, 0.0, 0.0, 0.0, 0.0, 0.0, 0.0, 0.0, 0.0, 1.7272857151235263E9, 0.0, 2024-09-25 12:35:15.123
11.0, 119004.26375916765, 187500.0, 148062.67149003406, 133576.90823994973, 58027.31907693375, 108211.18750705571, 116515.08408964683, 120814.39743213623, -0.244, 0.8220000000000001, 0.5, 192.0, 0.0, 0.0, 0.0, 0.0, 0.0, 0.0, 0.0, 0.0, 0.0, 1.727285715127647E9, 0.0, 2024-09-25 12:35:15.127
12.0, 119019.73116633072, 187500.0, 148115.91334532658, 133591.81685350143, 58062.29955700631, 108222.51984149455, 116523.86832521777, 120830.98242652208, -0.244, 0.8220000000000001, 0.5, 192.0, 0.0, 0.0, 0.0, 0.0, 0.0, 0.0, 0.0, 0.0, 0.0, 1.72728571513164E9, 0.0, 2024-09-25 12:35:15.131
13.0, 119005.91778825734, 187500.0, 148126.28455475386, 133598.61178381584, 58066.6581471751, 108233.4945480221, 116528.53983980893, 120842.38181619428, -0.244, 0.8220000000000001, 0.5, 192.0, 0.0, 0.0, 0.0, 0.0, 0.0, 0.0, 0.0, 0.0, 0.0, 1.7272857151345575E9, 0.0, 2024-09-25 12:35:15.134
14.0, 118996.08302069701, 187500.0, 148081.87163852117, 133591.97331571262, 58038.85257707269, 108233.6510102333, 116529.65742703169, 120838.29144695896, -0.244, 0.8220000000000001, 0.5, 192.0, 0.0, 0.0, 0.0, 0.0, 0.0, 0.0, 0.0, 0.0, 0.0, 1.727285715139649E9, 0.0, 2024-09-25 12:35:15.139
15.0, 119009.87404702594, 187500.0, 148065.62192030216, 133590.29693487848, 58032.43762641402, 108227.92896365274, 116531.17734565465, 120824.52277237449, -0.244, 0.8220000000000001, 0.5, 192.0, 0.0, 0.0, 0.0, 0.0, 0.0, 0.0, 0.0, 0.0, 0.0, 1.727285715143663E9, 0.0, 2024-09-25 12:35:15.143
16.0, 119031.59994263649, 187500.0, 148112.94056331404, 133602.74685654006, 58066.03229833035, 108235.550908512, 116532.96548521108, 120833.06113875641, -0.244, 0.8220000000000001, 0.5, 192.0, 0.0, 0.0, 0.0, 0.0, 0.0, 0.0, 0.0, 0.0, 0.0, 1.7272857151476696E9, 0.0, 2024-09-25 12:35:15.147
17.0, 119035.69031187182, 187500.0, 148129.99494433345, 133611.93342351122, 58073.25191178941, 108239.55187076949, 116540.38626437025, 120828.72490033209, -0.244, 0.8220000000000001, 0.5, 192.0, 0.0, 0.0, 0.0, 0.0, 0.0, 0.0, 0.0, 0.0, 0.0, 1.7272857151516705E9, 0.0, 2024-09-25 12:35:15.151
18.0, 119022.83805881001, 187500.0, 148108.38080744515, 133617.11902822484, 58061.673708161565, 108254.12520815435, 116544.32017139437, 120850.89783083176, -0.242, 0.8140000000000001, 0.498, 192.0, 248.0, 112.0, 25.0, 112.0, 15.0, 144.0, 0.0, 0.0, 0.0, 1.7272857151556723E9, 0.0, 2024-09-25 12:35:15.155
19.0, 119022.7933553211, 187500.0, 148096.57908637275, 133616.35906891336, 58059.93027209405, 108261.0989524244, 116540.18509867015, 120871.61789794182, -0.242, 0.8140000000000001, 0.498, 192.0, 0.0, 0.0, 0.0, 0.0, 0.0, 0.0, 0.0, 0.0, 0.0, 1.727285715159696E9, 0.0, 2024-09-25 12:35:15.159
20.0, 119039.95949506278, 187500.0, 148134.9123281136, 133625.94796728468, 58088.652263719116, 108264.74228677062, 116544.83426151685, 120877.85403464486, -0.242, 0.8140000000000001, 0.498, 192.0, 0.0, 0.0, 0.0, 0.0, 0.0, 0.0, 0.0, 0.0, 0.0, 1.7272857151626916E9, 0.0, 2024-09-25 12:35:15.162
21.0, 119040.8982683299, 187500.0, 148159.90157841463, 133636.45328717868, 58101.57157201428, 108272.8559700079, 116551.65154357572, 120876.71409567763, -0.242, 0.8140000000000001, 0.498, 192.0, 0.0, 0.0, 0.0, 0.0, 0.0, 0.0, 0.0, 0.0, 0.0, 1.72728571516769E9, 0.0, 2024-09-25 12:35:15.167
22.0, 119033.41043393737, 187500.0, 148128.29621175484, 133636.96737730116, 58083.37725202766, 108278.84623752192, 116560.12285472428, 120871.61789794182, -0.242, 0.8140000000000001, 0.498, 192.0, 0.0, 0.0, 0.0, 0.0, 0.0, 0.0, 0.0, 0.0, 0.0, 1.7272857151716895E9, 0.0, 2024-09-25 12:35:15.171
23.0, 119040.78650960763, 187500.0, 148100.40123467462, 133630.61948187585, 58070.92733036606, 108276.09697295392, 116564.2579274485, 120870.74617990806, -0.242, 0.8140000000000001, 0.498, 192.0, 0.0, 0.0, 0.0, 0.0, 0.0, 0.0, 0.0, 0.0, 0.0, 1.727285715175652E9, 0.0, 2024-09-25 12:35:15.175
24.0, 119055.02457082566, 187500.0, 148134.4205897356, 133638.26377847957, 58098.084699879255, 108282.28840616804, 116568.59416587284, 120877.96579336713, -0.242, 0.8140000000000001, 0.498, 192.0, 0.0, 0.0, 0.0, 0.0, 0.0, 0.0, 0.0, 0.0, 0.0, 1.7272857151797E9, 0.0, 2024-09-25 12:35:15.179
25.0, 119055.02457082566, 187500.0, 148180.66634901363, 133652.5912466754, 58127.34313337125, 108296.52646738607, 116573.9138810532, 120898.77526745503, -0.242, 0.8140000000000001, 0.498, 192.0, 0.0, 0.0, 0.0, 0.0, 0.0, 0.0, 0.0, 0.0, 0.0, 1.7272857151827235E9, 0.0, 2024-09-25 12:35:15.182
26.0, 119046.3967974659, 187500.0, 148159.74511620344, 133651.38425247482, 58114.15560414262, 108298.5157726426, 116577.40075318824, 120905.57019776944, -0.242, 0.8140000000000001, 0.498, 192.0, 0.0, 0.0, 0.0, 0.0, 0.0, 0.0, 0.0, 0.0, 0.0, 1.7272857151867113E9, 0.0, 2024-09-25 12:35:15.186
27.0, 119052.76704463566, 187500.0, 148119.86960409518, 133645.08106053842, 58092.31794980979, 108291.94435977274, 116578.518340411, 120898.75291571056, -0.242, 0.8140000000000001, 0.498, 192.0, 0.0, 0.0, 0.0, 0.0, 0.0, 0.0, 0.0, 0.0, 0.0, 1.7272857151907437E9, 0.0, 2024-09-25 12:35:15.190
28.0, 119074.69410594633, 187500.0, 148139.00269734891, 133650.3560722299, 58105.72899648297, 108289.19509520473, 116582.1169712683, 120893.18733134119, -0.242, 0.8140000000000001, 0.498, 192.0, 0.0, 0.0, 0.0, 0.0, 0.0, 0.0, 0.0, 0.0, 0.0, 1.7272857151957414E9, 0.0, 2024-09-25 12:35:15.195
29.0, 119078.27038505918, 187500.0, 148190.74698576296, 133665.01881659255, 58137.96021198753, 108297.35348193091, 116585.84971259233, 120904.11733437984, -0.244, 0.8160000000000001, 0.498, 192.0, 248.0, 96.0, 25.0, 128.0, 15.0, 144.0, 0.0, 0.0, 0.0, 1.7272857151997304E9, 0.0, 2024-09-25 12:35:15.199
30.0, 119067.38508550944, 187500.0, 148184.30968335984, 133666.56108696, 58134.2721741524, 108306.16006924631, 116592.82345686239, 120919.29416886499, -0.244, 0.8160000000000001, 0.498, 192.0, 0.0, 0.0, 0.0, 0.0, 0.0, 0.0, 0.0, 0.0, 0.0, 1.7272857152037656E9, 0.0, 2024-09-25 12:35:15.203
31.0, 119067.54154772063, 187500.0, 148141.0143543499, 133659.02854907853, 58109.79701397384, 108301.28738895505, 116597.13734354227, 120912.27572110602, -0.244, 0.8160000000000001, 0.498, 192.0, 0.0, 0.0, 0.0, 0.0, 0.0, 0.0, 0.0, 0.0, 0.0, 1.727285715207769E9, 0.0, 2024-09-25 12:35:15.207
32.0, 119083.12071360597, 187500.0, 148153.5760347338, 133660.5484677015, 58121.375217601686, 108301.24268546615, 116599.39486973225, 120916.61195953036, -0.244, 0.8160000000000001, 0.498, 192.0, 0.0, 0.0, 0.0, 0.0, 0.0, 0.0, 0.0, 0.0, 0.0, 1.7272857152107642E9, 0.0, 2024-09-25 12:35:15.210
33.0, 119096.44235330133, 187500.0, 148201.14054693468, 133673.73599693013, 58152.08651448328, 108309.24460998113, 116603.52994245649, 120922.73633751112, -0.244, 0.8160000000000001, 0.498, 192.0, 0.0, 0.0, 0.0, 0.0, 0.0, 0.0, 0.0, 0.0, 0.0, 1.7272857152147684E9, 0.0, 2024-09-25 12:35:15.214
34.0, 119084.19359733984, 187500.0, 148201.8781545017, 133677.82636616545, 58149.58311910428, 108315.07841528398, 116607.2179802916, 120932.8393260049, -0.244, 0.8160000000000001, 0.498, 192.0, 0.0, 0.0, 0.0, 0.0, 0.0, 0.0, 0.0, 0.0, 0.0, 1.7272857152187462E9, 0.0, 2024-09-25 12:35:15.218
35.0, 119083.27717581716, 187500.0, 148162.36027030472, 133674.58536321943, 58127.34313337125, 108314.11729027239, 116617.09745134086, 120928.86071549187, -0.244, 0.8160000000000001, 0.498, 192.0, 0.0, 0.0, 0.0, 0.0, 0.0, 0.0, 0.0, 0.0, 0.0, 1.7272857152228465E9, 0.0, 2024-09-25 12:35:15.222
36.0, 119095.74944922322, 187500.0, 148164.95307266153, 133679.25687781058, 58136.194424175555, 108317.13477577387, 116621.14311708727, 120931.60998005987, -0.244, 0.8160000000000001, 0.498, 192.0, 0.0, 0.0, 0.0, 0.0, 0.0, 0.0, 0.0, 0.0, 0.0, 1.727285715227796E9, 0.0, 2024-09-25 12:35:15.227
37.0, 119112.69207152035, 187500.0, 148214.90922151916, 133692.13148261685, 58169.36441294723, 108326.1648805338, 116623.71356769963, 120935.81210801746, -0.244, 0.8160000000000001, 0.498, 192.0, 0.0, 0.0, 0.0, 0.0, 0.0, 0.0, 0.0, 0.0, 0.0, 1.7272857152327154E9, 0.0, 2024-09-25 12:35:15.232
38.0, 119105.27129236118, 187500.0, 148228.52143389243, 133696.37831406336, 58174.48296242749, 108331.79752013655, 116626.10520435634, 120941.4447476202, -0.244, 0.8160000000000001, 0.498, 192.0, 0.0, 0.0, 0.0, 0.0, 0.0, 0.0, 0.0, 0.0, 0.0, 1.7272857152357745E9, 0.0, 2024-09-25 12:35:15.235
39.0, 119099.90687369191, 187500.0, 148185.38256709368, 133687.95170640372, 58146.58798534727, 108330.63522942486, 116631.15669860324, 120933.1969539162, -0.244, 0.806, 0.496, 192.0, 248.0, 96.0, 25.0, 48.0, 15.0, 128.0, 0.0, 0.0, 0.0, 1.727285715239817E9, 0.0, 2024-09-25 12:35:15.239
40.0, 119111.57448429758, 187500.0, 148177.17947687858, 133686.14121510283, 58149.18078770409, 108334.5244329601, 116630.70966371414, 120941.86943076485, -0.244, 0.806, 0.496, 192.0, 0.0, 0.0, 0.0, 0.0, 0.0, 0.0, 0.0, 0.0, 0.0, 1.7272857152427576E9, 0.0, 2024-09-25 12:35:15.242
41.0, 119126.88542924947, 187500.0, 148225.1463204797, 133695.46189254068, 58180.69674738607, 108341.7216946747, 116632.54250675948, 120953.91702102627, -0.244, 0.806, 0.496, 192.0, 0.0, 0.0, 0.0, 0.0, 0.0, 0.0, 0.0, 0.0, 0.0, 1.727285715248822E9, 0.0, 2024-09-25 12:35:15.248
42.0, 119124.09146119255, 187500.0, 148245.12878002273, 133707.554186291, 58190.37505273522, 108351.48940700167, 116643.1819371202, 120955.7498640716, -0.244, 0.806, 0.496, 192.0, 0.0, 0.0, 0.0, 0.0, 0.0, 0.0, 0.0, 0.0, 0.0, 1.7272857152517686E9, 0.0, 2024-09-25 12:35:15.251
43.0, 119119.15172566794, 187500.0, 148210.4388726281, 133707.6659450133, 58169.07384026931, 108355.89270065937, 116648.97103893412, 120955.43693964923, -0.244, 0.806, 0.496, 192.0, 0.0, 0.0, 0.0, 0.0, 0.0, 0.0, 0.0, 0.0, 0.0, 1.7272857152558396E9, 0.0, 2024-09-25 12:35:15.255
44.0, 119133.59095258606, 187500.0, 148192.04338694137, 133709.6552502698, 58162.74829658846, 108360.34069780598, 116654.64838202577, 120956.95685827218, -0.244, 0.806, 0.496, 192.0, 0.0, 0.0, 0.0, 0.0, 0.0, 0.0, 0.0, 0.0, 0.0, 1.7272857152598732E9, 0.0, 2024-09-25 12:35:15.259
45.0, 119144.23038294679, 187500.0, 148232.88002406122, 133718.4618375852, 58190.26329401294, 108363.24642458516, 116648.79222497848, 120966.32223919895, -0.244, 0.806, 0.496, 192.0, 0.0, 0.0, 0.0, 0.0, 0.0, 0.0, 0.0, 0.0, 0.0, 1.7272857152637887E9, 0.0, 2024-09-25 12:35:15.263
46.0, 119144.61036260253, 187500.0, 148259.61271042976, 133725.2120644107, 58203.89785813068, 108362.59822399596, 116651.67560001322, 120962.16481473028, -0.244, 0.806, 0.496, 192.0, 0.0, 0.0, 0.0, 0.0, 0.0, 0.0, 0.0, 0.0, 0.0, 1.727285715266811E9, 0.0, 2024-09-25 12:35:15.266
47.0, 119135.60260958703, 187500.0, 148235.36106769575, 133724.18388416577, 58188.81043062335, 108368.25321534315, 116658.35877160536, 120964.28823045353, -0.244, 0.806, 0.496, 192.0, 0.0, 0.0, 0.0, 0.0, 0.0, 0.0, 0.0, 0.0, 0.0, 1.72728571527083E9, 0.0, 2024-09-25 12:35:15.270
48.0, 119142.79987130164, 187500.0, 148204.3368463918, 133719.78059050807, 58172.672471126614, 108366.62153799791, 116662.15856816276, 120962.47773915264, -0.244, 0.806, 0.496, 192.0, 0.0, 0.0, 0.0, 0.0, 0.0, 0.0, 0.0, 0.0, 0.0, 1.7272857152768283E9, 0.0, 2024-09-25 12:35:15.276
49.0, 119167.87852858049, 187500.0, 148235.9422130516, 133729.50359934612, 58195.91828536014, 108369.37080256591, 116670.04873395548, 120962.03070426354, -0.23800000000000002, 0.8160000000000001, 0.498, 192.0, 248.0, 144.0, 25.0, 128.0, 15.0, 144.0, 0.0, 0.0, 0.0, 1.727285715280884E9, 0.0, 2024-09-25 12:35:15.280
50.0, 119168.90670882544, 187500.0, 148274.9460071261, 133741.3723756519, 58221.60043973928, 108374.7799247241, 116673.4909026016, 120964.86937580937, -0.23800000000000002, 0.8160000000000001, 0.498, 192.0, 0.0, 0.0, 0.0, 0.0, 0.0, 0.0, 0.0, 0.0, 0.0, 1.727285715283835E9, 0.0, 2024-09-25 12:35:15.283
51.0, 119154.93686854087, 187500.0, 148260.1938557856, 133741.50648611863, 58212.41387276815, 108381.88777946089, 116675.74842879159, 120977.07342828196, -0.23800000000000002, 0.8160000000000001, 0.498, 192.0, 0.0, 0.0, 0.0, 0.0, 0.0, 0.0, 0.0, 0.0, 0.0, 1.7272857152888944E9, 0.0, 2024-09-25 12:35:15.288
52.0, 119152.5228801397, 187500.0, 148227.5826606253, 133733.68337555925, 58198.04170108339, 108383.56416029503, 116673.96028923515, 120993.2560912676, -0.23800000000000002, 0.8160000000000001, 0.498, 192.0, 0.0, 0.0, 0.0, 0.0, 0.0, 0.0, 0.0, 0.0, 0.0, 1.727285715291882E9, 0.0, 2024-09-25 12:35:15.291
53.0, 119165.41983669042, 187500.0, 148248.63800390222, 133736.5220471051, 58214.626695469226, 108384.34647135097, 116670.07108569994, 121007.5165042301, -0.23800000000000002, 0.8160000000000001, 0.498, 192.0, 0.0, 0.0, 0.0, 0.0, 0.0, 0.0, 0.0, 0.0, 0.0, 1.727285715295921E9, 0.0, 2024-09-25 12:35:15.295
54.0, 119180.9766508313, 187500.0, 148285.11605085328, 133751.00597751213, 58237.60428876928, 108383.78767773959, 116678.18476893721, 120996.49709421363, -0.23800000000000002, 0.8160000000000001, 0.498, 192.0, 0.0, 0.0, 0.0, 0.0, 0.0, 0.0, 0.0, 0.0, 0.0, 1.727285715298916E9, 0.0, 2024-09-25 12:35:15.298
55.0, 119171.74538037127, 187500.0, 148276.13064958222, 133751.90004729034, 58229.62471599874, 108387.27454987462, 116679.54822534899, 120995.82654187997, -0.23800000000000002, 0.8160000000000001, 0.498, 192.0, 0.0, 0.0, 0.0, 0.0, 0.0, 0.0, 0.0, 0.0, 0.0, 1.7272857153029883E9, 0.0, 2024-09-25 12:35:15.302
56.0, 119172.5276914272, 187500.0, 148241.95483231006, 133747.22853269917, 58210.33516053381, 108389.19679989778, 116684.51031261806, 121003.94022511724, -0.23800000000000002, 0.8160000000000001, 0.498, 192.0, 0.0, 0.0, 0.0, 0.0, 0.0, 0.0, 0.0, 0.0, 0.0, 1.7272857153069491E9, 0.0, 2024-09-25 12:35:15.306
57.0, 119192.77837190371, 187500.0, 148243.89943407767, 133748.43552689976, 58215.7889861809, 108388.16861965283, 116692.42283015524, 120991.73617264464, -0.23800000000000002, 0.8160000000000001, 0.498, 192.0, 0.0, 0.0, 0.0, 0.0, 0.0, 0.0, 0.0, 0.0, 0.0, 1.7272857153109567E9, 0.0, 2024-09-25 12:35:15.310
58.0, 119205.18359007641, 187500.0, 148290.39106254472, 133761.91362880633, 58252.1999778986, 108396.9305034793, 116701.3411761929, 120986.99760282012, -0.23800000000000002, 0.8160000000000001, 0.498, 192.0, 0.0, 0.0, 0.0, 0.0, 0.0, 0.0, 0.0, 0.0, 0.0, 1.7272857153159437E9, 0.0, 2024-09-25 12:35:15.315
59.0, 119191.6384329365, 187500.0, 148299.57762951584, 133766.65219863085, 58258.257300645986, 108408.17343094033, 116700.4918099036, 121004.32020477299, -0.24, 0.8180000000000001, 0.496, 192.0, 248.0, 128.0, 25.0, 144.0, 15.0, 128.0, 0.0, 0.0, 0.0, 1.72728571531999E9, 0.0, 2024-09-25 12:35:15.319
60.0, 119185.91638635594, 187500.0, 148256.10348655027, 133755.90100954784, 58230.228213099035, 108401.2890936481, 116700.13418199233, 121000.4086494933, -0.24, 0.8180000000000001, 0.496, 192.0, 0.0, 0.0, 0.0, 0.0, 0.0, 0.0, 0.0, 0.0, 0.0, 1.7272857153230014E9, 0.0, 2024-09-25 12:35:15.323
61.0, 119206.39058427699, 187500.0, 148249.19679751358, 133755.49867814765, 58229.28943983191, 108394.85179124496, 116704.51512390556, 120988.00343132061, -0.24, 0.8180000000000001, 0.496, 192.0, 0.0, 0.0, 0.0, 0.0, 0.0, 0.0, 0.0, 0.0, 0.0, 1.7272857153269928E9, 0.0, 2024-09-25 12:35:15.326
62.0, 119220.31572107265, 187500.0, 148303.44448130662, 133770.0273120436, 58268.15912343969, 108403.09958494897, 116706.41502218426, 121000.47570472668, -0.24, 0.8180000000000001, 0.496, 192.0, 0.0, 0.0, 0.0, 0.0, 0.0, 0.0, 0.0, 0.0, 0.0, 1.7272857153309915E9, 0.0, 2024-09-25 12:35:15.330
63.0, 119209.51982850074, 187500.0, 148322.91285072718, 133778.45391970326, 58279.55851311189, 108416.73414906672, 116705.78917333951, 121019.31822530249, -0.24, 0.8180000000000001, 0.496, 192.0, 0.0, 0.0, 0.0, 0.0, 0.0, 0.0, 0.0, 0.0, 0.0, 1.727285715334968E9, 0.0, 2024-09-25 12:35:15.334
64.0, 119198.85804639556, 187500.0, 148284.22198107507, 133774.5200126791, 58255.753905266996, 108420.22102120174, 116710.25952223058, 121026.09080387244, -0.24, 0.8180000000000001, 0.496, 192.0, 0.0, 0.0, 0.0, 0.0, 0.0, 0.0, 0.0, 0.0, 0.0, 1.7272857153389287E9, 0.0, 2024-09-25 12:35:15.338
65.0, 119210.92798840142, 187500.0, 148265.13359131024, 133772.64246614487, 58248.176663896644, 108416.73414906672, 116716.60741765589, 121020.45816426972, -0.24, 0.8180000000000001, 0.496, 192.0, 0.0, 0.0, 0.0, 0.0, 0.0, 0.0, 0.0, 0.0, 0.0, 1.72728571534399E9, 0.0, 2024-09-25 12:35:15.343
66.0, 119228.27294209875, 187500.0, 148305.56789702986, 133784.10891105043, 58276.89865552171, 108422.81382355855, 116721.54715318051, 121021.82162068148, -0.24, 0.8180000000000001, 0.496, 192.0, 0.0, 0.0, 0.0, 0.0, 0.0, 0.0, 0.0, 0.0, 0.0, 1.727285715347024E9, 0.0, 2024-09-25 12:35:15.347
67.0, 119225.389567064, 187500.0, 148330.53479558646, 133797.11762632342, 58291.42728941766, 108434.10145450849, 116724.13995553732, 121031.45522254173, -0.24, 0.8180000000000001, 0.496, 192.0, 0.0, 0.0, 0.0, 0.0, 0.0, 0.0, 0.0, 0.0, 0.0, 1.727285715350932E9, 0.0, 2024-09-25 12:35:15.350
68.0, 119214.32545355863, 187500.0, 148296.87306843675, 133793.65310593284, 58269.299062406906, 108437.00718128767, 116724.60934217088, 121041.49115580216, -0.24, 0.8180000000000001, 0.496, 192.0, 0.0, 0.0, 0.0, 0.0, 0.0, 0.0, 0.0, 0.0, 0.0, 1.727285715354966E9, 0.0, 2024-09-25 12:35:15.354
69.0, 119226.50715428677, 187500.0, 148268.08402157834, 133793.04960883257, 58254.837483744326, 108433.5426608971, 116731.65014167431, 121034.80798421003, -0.24, 0.8180000000000001, 0.496, 192.0, 0.0, 0.0, 0.0, 0.0, 0.0, 0.0, 0.0, 0.0, 0.0, 1.7272857153599777E9, 0.0, 2024-09-25 12:35:15.359
70.0, 119242.22043063884, 187500.0, 148307.91483019767, 133801.31975428102, 58283.64888234722, 108439.4435214333, 116731.24781027412, 121046.00620818212, -0.23800000000000002, 0.8200000000000001, 0.496, 192.0, 248.0, 144.0, 25.0, 160.0, 15.0, 128.0, 0.0, 0.0, 0.0, 1.7272857153640306E9, 0.0, 2024-09-25 12:35:15.364
71.0, 119245.90846847398, 187500.0, 148344.92931901567, 133812.47327476423, 58304.48070817956, 108450.35117272749, 116734.57822019795, 121055.14807166436, -0.23800000000000002, 0.8200000000000001, 0.496, 192.0, 0.0, 0.0, 0.0, 0.0, 0.0, 0.0, 0.0, 0.0, 0.0, 1.7272857153670263E9, 0.0, 2024-09-25 12:35:15.367
72.0, 119232.72093924535, 187500.0, 148319.29186812544, 133808.7852369291, 58287.09105099333, 108451.75933262818, 116737.12631906585, 121062.61355431243, -0.23800000000000002, 0.8200000000000001, 0.496, 192.0, 0.0, 0.0, 0.0, 0.0, 0.0, 0.0, 0.0, 0.0, 0.0, 1.7272857153719711E9, 0.0, 2024-09-25 12:35:15.371
73.0, 119232.87740145653, 187500.0, 148291.82157418987, 133805.1419025829, 58272.42830663065, 108452.58634717303, 116741.77548191255, 121074.99642074066, -0.23800000000000002, 0.8200000000000001, 0.496, 192.0, 0.0, 0.0, 0.0, 0.0, 0.0, 0.0, 0.0, 0.0, 0.0, 1.7272857153750448E9, 0.0, 2024-09-25 12:35:15.375
74.0, 119253.5974685666, 187500.0, 148315.24620237903, 133812.04859161956, 58290.48851615054, 108449.56886167156, 116749.5091854941, 121067.39682762585, -0.23800000000000002, 0.8200000000000001, 0.496, 192.0, 0.0, 0.0, 0.0, 0.0, 0.0, 0.0, 0.0, 0.0, 0.0, 1.727285715378049E9, 0.0, 2024-09-25 12:35:15.378
75.0, 119252.7928057662, 187500.0, 148362.25192096853, 133827.31483308255, 58321.73625489906, 108461.63880367743, 116752.68313320675, 121085.38998191238, -0.23800000000000002, 0.8200000000000001, 0.496, 192.0, 0.0, 0.0, 0.0, 0.0, 0.0, 0.0, 0.0, 0.0, 0.0, 1.7272857153830383E9, 0.0, 2024-09-25 12:35:15.383
76.0, 119242.71216901687, 187500.0, 148344.1023044708, 133826.46546679325, 58310.22510650458, 108467.83023689155, 116751.83376691745, 121097.16935124033, -0.23800000000000002, 0.8200000000000001, 0.496, 192.0, 0.0, 0.0, 0.0, 0.0, 0.0, 0.0, 0.0, 0.0, 0.0, 1.7272857153870034E9, 0.0, 2024-09-25 12:35:15.387
77.0, 119245.97552370734, 187500.0, 148300.6505132497, 133814.84255967647, 58285.0570422479, 108463.15872230039, 116753.01840937357, 121087.64750810237, -0.23800000000000002, 0.8200000000000001, 0.496, 192.0, 0.0, 0.0, 0.0, 0.0, 0.0, 0.0, 0.0, 0.0, 0.0, 1.727285715391009E9, 0.0, 2024-09-25 12:35:15.391
78.0, 119266.78499779523, 187500.0, 148318.68837102514, 133819.98346090122, 58301.08324302235, 108466.42207699086, 116760.32742981047, 121086.21699645722, -0.23800000000000002, 0.8200000000000001, 0.496, 192.0, 0.0, 0.0, 0.0, 0.0, 0.0, 0.0, 0.0, 0.0, 0.0, 1.7272857153950906E9, 0.0, 2024-09-25 12:35:15.395
79.0, 119274.96573626588, 187500.0, 148370.030328039, 133836.6802140093, 58334.78967366096, 108478.91670214137, 116767.81526420299, 121097.03524077359, -0.23800000000000002, 0.8200000000000001, 0.496, 192.0, 0.0, 0.0, 0.0, 0.0, 0.0, 0.0, 0.0, 0.0, 0.0, 1.7272857153990953E9, 0.0, 2024-09-25 12:35:15.399
80.0, 119258.8054250247, 187500.0, 148369.29272047195, 133842.0893361675, 58334.05206609394, 108490.07022262458, 116771.8609299494, 121112.0332613031, -0.24, 0.8260000000000001, 0.494, 192.0, 248.0, 128.0, 25.0, 208.0, 15.0, 112.0, 0.0, 0.0, 0.0, 1.7272857154030948E9, 0.0, 2024-09-25 12:35:15.403
81.0, 119257.5984308241, 187500.0, 148331.8535485093, 133838.55776054357, 58312.59439141684, 108495.12171687148, 116776.33127884046, 121116.7941828721, -0.24, 0.8260000000000001, 0.494, 192.0, 0.0, 0.0, 0.0, 0.0, 0.0, 0.0, 0.0, 0.0, 0.0, 1.7272857154061153E9, 0.0, 2024-09-25 12:35:15.406
82.0, 119273.66933508747, 187500.0, 148330.512443842, 133834.84737096398, 58320.261039765006, 108488.37149004597, 116778.92408119728, 121108.21111300125, -0.24, 0.8260000000000001, 0.494, 192.0, 0.0, 0.0, 0.0, 0.0, 0.0, 0.0, 0.0, 0.0, 0.0, 1.7272857154110632E9, 0.0, 2024-09-25 12:35:15.411
83.0, 119287.52741664975, 187500.0, 148369.00214779403, 133844.5480280576, 58344.512682499015, 108486.76216444519, 116779.88520620886, 121093.16838898283, -0.24, 0.8260000000000001, 0.494, 192.0, 0.0, 0.0, 0.0, 0.0, 0.0, 0.0, 0.0, 0.0, 0.0, 1.7272857154150574E9, 0.0, 2024-09-25 12:35:15.415
84.0, 119279.16786422348, 187500.0, 148377.4287554537, 133852.4381938503, 58349.38536279027, 108497.71451922829, 116781.67334576529, 121099.51628440814, -0.24, 0.8260000000000001, 0.494, 192.0, 0.0, 0.0, 0.0, 0.0, 0.0, 0.0, 0.0, 0.0, 0.0, 1.7272857154191132E9, 0.0, 2024-09-25 12:35:15.419
85.0, 119269.44485538542, 187500.0, 148342.67179282568, 133843.69866176829, 58325.558403200914, 108498.3627198175, 116777.80649397451, 121114.40254621537, -0.24, 0.8260000000000001, 0.494, 192.0, 0.0, 0.0, 0.0, 0.0, 0.0, 0.0, 0.0, 0.0, 0.0, 1.727285715423139E9, 0.0, 2024-09-25 12:35:15.423
86.0, 119292.5118556633, 187500.0, 148323.24812689403, 133838.60246403248, 58315.366007729295, 108485.82339117807, 116783.93087195526, 121091.11202849293, -0.24, 0.8260000000000001, 0.494, 192.0, 0.0, 0.0, 0.0, 0.0, 0.0, 0.0, 0.0, 0.0, 0.0, 1.7272857154271212E9, 0.0, 2024-09-25 12:35:15.427
87.0, 119307.15224828152, 187500.0, 148372.55607516243, 133850.02420544912, 58351.97816514709, 108492.93124591485, 116785.20492138922, 121096.18587448429, -0.24, 0.8260000000000001, 0.494, 192.0, 0.0, 0.0, 0.0, 0.0, 0.0, 0.0, 0.0, 0.0, 0.0, 1.727285715431079E9, 0.0, 2024-09-25 12:35:15.431
88.0, 119296.37870745406, 187500.0, 148393.96904635063, 133859.47899335372, 58364.83041820889, 108502.45308905281, 116784.69083126675, 121111.89915083637, -0.24, 0.8260000000000001, 0.494, 192.0, 0.0, 0.0, 0.0, 0.0, 0.0, 0.0, 0.0, 0.0, 0.0, 1.7272857154341042E9, 0.0, 2024-09-25 12:35:15.434
89.0, 119288.37678293906, 187500.0, 148353.44533365313, 133854.82983050702, 58338.231842307076, 108499.79323146264, 116789.04942143553, 121104.27720597711, -0.24, 0.8260000000000001, 0.494, 192.0, 0.0, 0.0, 0.0, 0.0, 0.0, 0.0, 0.0, 0.0, 0.0, 1.7272857154390764E9, 0.0, 2024-09-25 12:35:15.439
90.0, 119300.06674528918, 187500.0, 148333.35111538784, 133852.5946560615, 58327.458301479615, 108494.1605918599, 116791.50811332562, 121096.40939192884, -0.244, 0.8220000000000001, 0.506, 192.0, 248.0, 96.0, 25.0, 176.0, 15.0, 208.0, 0.0, 0.0, 0.0, 1.7272857154431667E9, 0.0, 2024-09-25 12:35:15.443
91.0, 119321.18914379945, 187500.0, 148379.90979908823, 133868.88907776942, 58359.64481349526, 108503.50362104221, 116796.89488373934, 121104.2325024882, -0.244, 0.8220000000000001, 0.506, 192.0, 0.0, 0.0, 0.0, 0.0, 0.0, 0.0, 0.0, 0.0, 0.0, 1.7272857154470768E9, 0.0, 2024-09-25 12:35:15.447
92.0, 119319.40100424303, 187500.0, 148409.63761921378, 133877.02511275114, 58376.341566603376, 108512.82429848007, 116798.14658142884, 121114.31313923755, -0.244, 0.8220000000000001, 0.506, 192.0, 0.0, 0.0, 0.0, 0.0, 0.0, 0.0, 0.0, 0.0, 0.0, 1.7272857154511323E9, 0.0, 2024-09-25 12:35:15.451
93.0, 119311.55554193922, 187500.0, 148376.08765078636, 133872.73357781573, 58353.5204355145, 108515.19358339233, 116798.92889248478, 121115.81070611606, -0.244, 0.8220000000000001, 0.506, 192.0, 0.0, 0.0, 0.0, 0.0, 0.0, 0.0, 0.0, 0.0, 0.0, 1.7272857154551315E9, 0.0, 2024-09-25 12:35:15.455
94.0, 119319.0657280762, 187500.0, 148347.07508648338, 133873.38177840493, 58341.45049350864, 108513.89718221393, 116806.05909896603, 121114.51430493765, -0.244, 0.8220000000000001, 0.506, 192.0, 0.0, 0.0, 0.0, 0.0, 0.0, 0.0, 0.0, 0.0, 0.0, 1.7272857154581203E9, 0.0, 2024-09-25 12:35:15.458
95.0, 119330.91215263751, 187500.0, 148387.82231662542, 133887.50808090068, 58373.83817122438, 108522.39084510694, 116812.3175874135, 121128.84177313349, -0.244, 0.8220000000000001, 0.506, 192.0, 0.0, 0.0, 0.0, 0.0, 0.0, 0.0, 0.0, 0.0, 0.0, 1.727285715462202E9, 0.0, 2024-09-25 12:35:15.462
96.0, 119335.42720501748, 187500.0, 148425.2838403325, 133901.67908688536, 58394.75940403455, 108532.20326092283, 116816.16208745982, 121137.80482266008, -0.244, 0.8220000000000001, 0.506, 192.0, 0.0, 0.0, 0.0, 0.0, 0.0, 0.0, 0.0, 0.0, 0.0, 1.7272857154671426E9, 0.0, 2024-09-25 12:35:15.467
97.0, 119326.57591421317, 187500.0, 148404.20614531115, 133900.42738919586, 58377.88383697079, 108536.62890632499, 116816.2738461821, 121145.96320938626, -0.244, 0.8220000000000001, 0.506, 192.0, 0.0, 0.0, 0.0, 0.0, 0.0, 0.0, 0.0, 0.0, 0.0, 1.727285715471216E9, 0.0, 2024-09-25 12:35:15.471
98.0, 119328.45346074742, 187500.0, 148362.90012155773, 133890.10088325752, 58354.995650648554, 108528.47051959879, 116819.51484912811, 121134.04972959158, -0.244, 0.8220000000000001, 0.506, 192.0, 0.0, 0.0, 0.0, 0.0, 0.0, 0.0, 0.0, 0.0, 0.0, 1.7272857154752269E9, 0.0, 2024-09-25 12:35:15.475
99.0, 119343.96557139941, 187500.0, 148393.11968006133, 133899.19804325083, 58379.51551431603, 108534.5725458351, 116823.49345964116, 121140.41997676135, -0.244, 0.8220000000000001, 0.506, 192.0, 0.0, 0.0, 0.0, 0.0, 0.0, 0.0, 0.0, 0.0, 0.0, 1.7272857154791226E9, 0.0, 2024-09-25 12:35:15.479
100.0, 119354.85087094914, 187500.0, 148435.0962561484, 133911.82677886807, 58404.19184019469, 108542.52976686117, 116831.20481147824, 121142.45398550679, -0.23600000000000002, 0.8240000000000001, 0.5, 192.0, 248.0, 160.0, 25.0, 192.0, 15.0, 160.0, 0.0, 0.0, 0.0, 1.7272857154821675E9, 0.0, 2024-09-25 12:35:15.482
101.0, 119349.91113542453, 187500.0, 148423.16042460923, 133913.6596219134, 58393.239485411585, 108548.43062739738, 116834.49051791317, 121150.5453169996, -0.23600000000000002, 0.8240000000000001, 0.5, 192.0, 0.0, 0.0, 0.0, 0.0, 0.0, 0.0, 0.0, 0.0, 0.0, 1.7272857154861903E9, 0.0, 2024-09-25 12:35:15.486
102.0, 119350.20170810244, 187500.0, 148390.03513932647, 133906.57411892107, 58374.93340670269, 108548.9223657754, 116832.14358474537, 121161.72118922726, -0.23600000000000002, 0.8240000000000001, 0.5, 192.0, 0.0, 0.0, 0.0, 0.0, 0.0, 0.0, 0.0, 0.0, 0.0, 1.7272857154902055E9, 0.0, 2024-09-25 12:35:15.490
103.0, 119365.89263271006, 187500.0, 148404.16144182225, 133911.93853759035, 58388.8808952428, 108546.86600528551, 116837.55270690355, 121153.00400888968, -0.23600000000000002, 0.8240000000000001, 0.5, 192.0, 0.0, 0.0, 0.0, 0.0, 0.0, 0.0, 0.0, 0.0, 0.0, 1.7272857154952126E9, 0.0, 2024-09-25 12:35:15.495
104.0, 119370.29592636776, 187500.0, 148450.92129122274, 133926.19895055282, 58421.626200869825, 108554.17502572239, 116842.35833196144, 121154.18865134582, -0.23600000000000002, 0.8240000000000001, 0.5, 192.0, 0.0, 0.0, 0.0, 0.0, 0.0, 0.0, 0.0, 0.0, 0.0, 1.727285715499194E9, 0.0, 2024-09-25 12:35:15.499
105.0, 119356.39314131656, 187500.0, 148446.2944801205, 133926.48952323073, 58418.56401187945, 108559.4723891583, 116844.01236105114, 121163.46462529477, -0.23600000000000002, 0.8240000000000001, 0.5, 192.0, 0.0, 0.0, 0.0, 0.0, 0.0, 0.0, 0.0, 0.0, 0.0, 1.7272857155031848E9, 0.0, 2024-09-25 12:35:15.503
106.0, 119346.42426328949, 187500.0, 148408.38592152428, 133917.0123835817, 58396.324026146416, 108558.31009844663, 116840.77135810512, 121173.85818646649, -0.23600000000000002, 0.8240000000000001, 0.5, 192.0, 0.0, 0.0, 0.0, 0.0, 0.0, 0.0, 0.0, 0.0, 0.0, 1.7272857155072808E9, 0.0, 2024-09-25 12:35:15.507
107.0, 119367.56901354421, 187500.0, 148408.9670668801, 133922.53326446217, 58404.08008147241, 108559.53944439167, 116852.5283756886, 121166.52681428514, -0.23600000000000002, 0.8240000000000001, 0.5, 192.0, 0.0, 0.0, 0.0, 0.0, 0.0, 0.0, 0.0, 0.0, 0.0, 1.727285715510203E9, 0.0, 2024-09-25 12:35:15.510
108.0, 119378.25314739384, 187500.0, 148461.27014890555, 133935.29611054613, 58436.51246267706, 108571.877607331, 116855.00941932315, 121177.47916906825, -0.23600000000000002, 0.8240000000000001, 0.5, 192.0, 0.0, 0.0, 0.0, 0.0, 0.0, 0.0, 0.0, 0.0, 0.0, 1.7272857155142307E9, 0.0, 2024-09-25 12:35:15.514
109.0, 119377.18026365999, 187500.0, 148473.11657346686, 133945.2202850843, 58440.46872144565, 108582.1817615249, 116860.59735543697, 121189.37029711847, -0.23600000000000002, 0.8240000000000001, 0.5, 192.0, 0.0, 0.0, 0.0, 0.0, 0.0, 0.0, 0.0, 0.0, 0.0, 1.7272857155182316E9, 0.0, 2024-09-25 12:35:15.518
110.0, 119379.28132763879, 187500.0, 148434.67157300372, 133940.3252530486, 58415.14419497779, 108585.42276447092, 116863.39132349388, 121194.48884659873, -0.23600000000000002, 0.8240000000000001, 0.5, 192.0, 0.0, 0.0, 0.0, 0.0, 0.0, 0.0, 0.0, 0.0, 0.0, 1.7272857155222945E9, 0.0, 2024-09-25 12:35:15.522
111.0, 119402.70595582796, 187500.0, 148425.66381998823, 133947.58956999655, 58412.61844785434, 108587.30031100516, 116874.27662304362, 121185.43639009433, -0.24, 0.8220000000000001, 0.506, 192.0, 248.0, 128.0, 25.0, 176.0, 15.0, 208.0, 0.0, 0.0, 0.0, 1.7272857155282788E9, 0.0, 2024-09-25 12:35:15.528
112.0, 119419.35800544715, 187500.0, 148474.01064324507, 133965.4709655608, 58445.31904999245, 108594.40816574194, 116880.78098068011, 121186.79984650611, -0.24, 0.8220000000000001, 0.506, 192.0, 0.0, 0.0, 0.0, 0.0, 0.0, 0.0, 0.0, 0.0, 0.0, 1.727285715531329E9, 0.0, 2024-09-25 12:35:15.531
113.0, 119407.19865646347, 187500.0, 148494.9542277997, 133971.26006737474, 58456.2490530311, 108601.56072396765, 116876.71296318925, 121199.45093386782, -0.24, 0.8220000000000001, 0.506, 192.0, 0.0, 0.0, 0.0, 0.0, 0.0, 0.0, 0.0, 0.0, 0.0, 1.7272857155353332E9, 0.0, 2024-09-25 12:35:15.535
114.0, 119394.9275487575, 187500.0, 148454.67638429123, 133961.96174168133, 58429.71753236265, 108598.8338111441, 116874.45543699925, 121198.95919548979, -0.24, 0.8220000000000001, 0.506, 192.0, 0.0, 0.0, 0.0, 0.0, 0.0, 0.0, 0.0, 0.0, 0.0, 1.7272857155382323E9, 0.0, 2024-09-25 12:35:15.538
115.0, 119398.2356069369, 187500.0, 148429.35185782338, 133946.7178519628, 58417.0887967454, 108585.17689528191, 116873.1813875653, 121194.71236404328, -0.24, 0.8220000000000001, 0.506, 192.0, 0.0, 0.0, 0.0, 0.0, 0.0, 0.0, 0.0, 0.0, 0.0, 1.7272857155443504E9, 0.0, 2024-09-25 12:35:15.544
116.0, 119411.3337291877, 187500.0, 148461.33720413892, 133949.82474444207, 58441.04986680149, 108579.38779346798, 116875.10363758847, 121184.72113427176, -0.24, 0.8220000000000001, 0.506, 192.0, 0.0, 0.0, 0.0, 0.0, 0.0, 0.0, 0.0, 0.0, 0.0, 1.727285715547339E9, 0.0, 2024-09-25 12:35:15.547
117.0, 119397.45329588096, 187500.0, 148498.41874819028, 133963.07932890407, 58465.14504732431, 108592.79884014117, 116880.04337311309, 121203.13897170294, -0.24, 0.8220000000000001, 0.506, 192.0, 0.0, 0.0, 0.0, 0.0, 0.0, 0.0, 0.0, 0.0, 0.0, 1.7272857155502892E9, 0.0, 2024-09-25 12:35:15.550
118.0, 119386.43388586449, 187500.0, 148470.25555017657, 133963.48166030427, 58447.218948271155, 108598.05150008816, 116887.75472495017, 121211.92320727387, -0.24, 0.8220000000000001, 0.506, 192.0, 0.0, 0.0, 0.0, 0.0, 0.0, 0.0, 0.0, 0.0, 0.0, 1.7272857155553808E9, 0.0, 2024-09-25 12:35:15.555
119.0, 119400.51548487133, 187500.0, 148438.7842939835, 133960.01713991372, 58431.975058552634, 108594.34111050858, 116893.47677153072, 121207.2069891938, -0.24, 0.8220000000000001, 0.506, 192.0, 0.0, 0.0, 0.0, 0.0, 0.0, 0.0, 0.0, 0.0, 0.0, 1.7272857155593765E9, 0.0, 2024-09-25 12:35:15.559
120.0, 119424.20833399396, 187500.0, 148468.75798329807, 133963.86163996003, 58452.96334659617, 108590.38485173999, 116895.95781516527, 121198.40040187842, -0.24, 0.8220000000000001, 0.506, 192.0, 0.0, 0.0, 0.0, 0.0, 0.0, 0.0, 0.0, 0.0, 0.0, 1.7272857155632768E9, 0.0, 2024-09-25 12:35:15.563
121.0, 119422.8895810711, 187500.0, 148513.61793441986, 133975.52925056568, 58479.919550409264, 108601.06898558963, 116892.71681221925, 121214.8065823086, -0.242, 0.8220000000000001, 0.506, 192.0, 248.0, 112.0, 25.0, 176.0, 15.0, 208.0, 0.0, 0.0, 0.0, 1.7272857155663714E9, 0.0, 2024-09-25 12:35:15.566
122.0, 119407.19865646347, 187500.0, 148494.28367546602, 133975.6633610324, 58466.19557931371, 108609.00385487126, 116894.54965526458, 121228.44114642634, -0.242, 0.8220000000000001, 0.506, 192.0, 0.0, 0.0, 0.0, 0.0, 0.0, 0.0, 0.0, 0.0, 0.0, 1.7272857155703733E9, 0.0, 2024-09-25 12:35:15.570
123.0, 119409.34442393118, 187500.0, 148457.31389013695, 133968.84607897355, 58447.42011397125, 108606.52281123672, 116900.76344022316, 121227.6141318815, -0.242, 0.8220000000000001, 0.506, 192.0, 0.0, 0.0, 0.0, 0.0, 0.0, 0.0, 0.0, 0.0, 0.0, 1.7272857155743387E9, 0.0, 2024-09-25 12:35:15.574
124.0, 119440.25688651287, 187500.0, 148474.32356766745, 133977.45150058885, 58462.596948456405, 108607.55099148166, 116911.53698105062, 121212.7055183298, -0.242, 0.8220000000000001, 0.506, 192.0, 0.0, 0.0, 0.0, 0.0, 0.0, 0.0, 0.0, 0.0, 0.0, 1.72728571557838E9, 0.0, 2024-09-25 12:35:15.578
125.0, 119446.56007844927, 187500.0, 148525.08437932545, 133996.09285546458, 58496.75041398411, 108624.85124169008, 116919.62831254344, 121227.14474524793, -0.242, 0.8220000000000001, 0.506, 192.0, 0.0, 0.0, 0.0, 0.0, 0.0, 0.0, 0.0, 0.0, 0.0, 1.7272857155833542E9, 0.0, 2024-09-25 12:35:15.583
126.0, 119436.63590391111, 187500.0, 148514.33319024244, 133999.84794853308, 58490.89425693682, 108634.32838133913, 116926.02091145766, 121237.7171203753, -0.242, 0.8220000000000001, 0.506, 192.0, 0.0, 0.0, 0.0, 0.0, 0.0, 0.0, 0.0, 0.0, 0.0, 1.7272857155873806E9, 0.0, 2024-09-25 12:35:15.587
127.0, 119435.51831668835, 187500.0, 148480.6491113483, 133994.10355020803, 58472.76699218357, 108637.72584649634, 116923.2045916563, 121253.9221351054, -0.242, 0.8220000000000001, 0.506, 192.0, 0.0, 0.0, 0.0, 0.0, 0.0, 0.0, 0.0, 0.0, 0.0, 1.727285715591377E9, 0.0, 2024-09-25 12:35:15.591
128.0, 119444.32490400373, 187500.0, 148488.87455330786, 133989.49909085027, 58479.71838470917, 108632.24966910479, 116919.94123696581, 121254.41387348341, -0.242, 0.8220000000000001, 0.506, 192.0, 0.0, 0.0, 0.0, 0.0, 0.0, 0.0, 0.0, 0.0, 0.0, 1.727285715594382E9, 0.0, 2024-09-25 12:35:15.594
129.0, 119452.28212502983, 187500.0, 148537.3554870314, 133998.6856578214, 58509.13328041235, 108637.81525347415, 116923.18223991182, 121259.73358866377, -0.242, 0.8220000000000001, 0.506, 192.0, 0.0, 0.0, 0.0, 0.0, 0.0, 0.0, 0.0, 0.0, 0.0, 1.72728571559837E9, 0.0, 2024-09-25 12:35:15.598
130.0, 119452.438587241, 187500.0, 148528.77241716057, 134003.5359863682, 58502.76303324259, 108638.08347440761, 116933.91107725038, 121246.92603909089, -0.242, 0.8220000000000001, 0.506, 192.0, 0.0, 0.0, 0.0, 0.0, 0.0, 0.0, 0.0, 0.0, 0.0, 1.7272857156024323E9, 0.0, 2024-09-25 12:35:15.602
131.0, 119445.95658134898, 187500.0, 148491.1544312423, 133998.30567816563, 58482.57940799945, 108636.40709357346, 116935.00631272868, 121249.18356528087, -0.242, 0.8180000000000001, 0.506, 192.0, 248.0, 112.0, 25.0, 144.0, 15.0, 208.0, 0.0, 0.0, 0.0, 1.7272857156063948E9, 0.0, 2024-09-25 12:35:15.606
132.0, 119468.28597405982, 187500.0, 148488.42751841873, 133998.84212003258, 58484.702823722706, 108631.71322723785, 116940.72835930924, 121236.97951280828, -0.242, 0.8180000000000001, 0.506, 192.0, 0.0, 0.0, 0.0, 0.0, 0.0, 0.0, 0.0, 0.0, 0.0, 1.727285715612409E9, 0.0, 2024-09-25 12:35:15.612
133.0, 119483.46280854498, 187500.0, 148543.8598446679, 134013.37075392852, 58521.62790556287, 108645.25838437777, 116942.67296107685, 121250.45761471482, -0.242, 0.8180000000000001, 0.506, 192.0, 0.0, 0.0, 0.0, 0.0, 0.0, 0.0, 0.0, 0.0, 0.0, 1.727285715615471E9, 0.0, 2024-09-25 12:35:15.615
134.0, 119468.64360197111, 187500.0, 148558.27671984158, 134020.79153308767, 58527.752283543625, 108658.60237581759, 116940.61660058697, 121271.08827484708, -0.242, 0.8180000000000001, 0.506, 192.0, 0.0, 0.0, 0.0, 0.0, 0.0, 0.0, 0.0, 0.0, 0.0, 1.727285715619478E9, 0.0, 2024-09-25 12:35:15.619
135.0, 119458.36179952166, 187500.0, 148517.08245481044, 134015.71768709633, 58502.96419894269, 108659.27292815124, 116947.63504834594, 121275.8268446716, -0.242, 0.8180000000000001, 0.506, 192.0, 0.0, 0.0, 0.0, 0.0, 0.0, 0.0, 0.0, 0.0, 0.0, 1.7272857156224115E9, 0.0, 2024-09-25 12:35:15.622
136.0, 119474.16448285157, 187500.0, 148504.52077442655, 134016.00825977424, 58498.96323668519, 108658.02123046175, 116949.08791173554, 121275.69273420486, -0.242, 0.8180000000000001, 0.506, 192.0, 0.0, 0.0, 0.0, 0.0, 0.0, 0.0, 0.0, 0.0, 0.0, 1.7272857156263657E9, 0.0, 2024-09-25 12:35:15.626
137.0, 119486.97203242446, 187500.0, 148551.7053069717, 134025.68656512338, 58530.34508590044, 108665.21849217635, 116948.26089719069, 121285.79572269866, -0.242, 0.8180000000000001, 0.506, 192.0, 0.0, 0.0, 0.0, 0.0, 0.0, 0.0, 0.0, 0.0, 0.0, 1.727285715630434E9, 0.0, 2024-09-25 12:35:15.630
138.0, 119485.22859635694, 187500.0, 148563.9093594443, 134030.69335588138, 58535.82126329199, 108662.96096598638, 116952.37361817046, 121275.51392024923, -0.242, 0.8180000000000001, 0.506, 192.0, 0.0, 0.0, 0.0, 0.0, 0.0, 0.0, 0.0, 0.0, 0.0, 1.727285715634511E9, 0.0, 2024-09-25 12:35:15.634
139.0, 119475.46088402998, 187500.0, 148532.79573116254, 134030.67100413694, 58517.78340551656, 108668.5936055891, 116954.18410947135, 121281.70535346335, -0.242, 0.8180000000000001, 0.506, 192.0, 0.0, 0.0, 0.0, 0.0, 0.0, 0.0, 0.0, 0.0, 0.0, 1.7272857156385043E9, 0.0, 2024-09-25 12:35:15.638
140.0, 119479.01481139837, 187500.0, 148515.02609432055, 134028.90521632496, 58511.70373102471, 108668.5489021002, 116953.17828097085, 121292.32243207961, -0.242, 0.8180000000000001, 0.506, 192.0, 0.0, 0.0, 0.0, 0.0, 0.0, 0.0, 0.0, 0.0, 0.0, 1.7272857156434658E9, 0.0, 2024-09-25 12:35:15.643
141.0, 119503.66878553257, 187500.0, 148544.57510049047, 134037.62239666254, 58532.714370812704, 108667.36425964408, 116965.85172007701, 121273.9269463929, -0.242, 0.8180000000000001, 0.502, 192.0, 248.0, 112.0, 25.0, 144.0, 15.0, 176.0, 0.0, 0.0, 0.0, 1.7272857156464524E9, 0.0, 2024-09-25 12:35:15.646
142.0, 119502.19357039852, 187500.0, 148577.16394390631, 134051.9945683473, 58554.26145246762, 108682.2058179624, 116975.68648763734, 121280.45365577385, -0.242, 0.8180000000000001, 0.502, 192.0, 0.0, 0.0, 0.0, 0.0, 0.0, 0.0, 0.0, 0.0, 0.0, 1.7272857156504424E9, 0.0, 2024-09-25 12:35:15.650
143.0, 119489.98951792593, 187500.0, 148551.2582720826, 134048.3288822566, 58538.97285926019, 108688.88898955453, 116978.92749058337, 121290.5789960121, -0.242, 0.8180000000000001, 0.502, 192.0, 0.0, 0.0, 0.0, 0.0, 0.0, 0.0, 0.0, 0.0, 0.0, 1.7272857156544626E9, 0.0, 2024-09-25 12:35:15.654
144.0, 119494.03518367234, 187500.0, 148527.96775436017, 134042.04804206468, 58528.82516727748, 108688.50900989879, 116979.9109673394, 121296.70337399286, -0.242, 0.8180000000000001, 0.502, 192.0, 0.0, 0.0, 0.0, 0.0, 0.0, 0.0, 0.0, 0.0, 0.0, 1.7272857156585171E9, 0.0, 2024-09-25 12:35:15.658
145.0, 119509.05555594631, 187500.0, 148566.25629261212, 134048.8429723791, 58556.22840597969, 108695.57216114667, 116984.62718541946, 121310.24853113278, -0.242, 0.8180000000000001, 0.502, 192.0, 0.0, 0.0, 0.0, 0.0, 0.0, 0.0, 0.0, 0.0, 0.0, 1.7272857156625164E9, 0.0, 2024-09-25 12:35:15.662
146.0, 119512.69889029252, 187500.0, 148603.44959538575, 134058.1860015614, 58574.78035387759, 108699.61782689308, 116985.65536566441, 121314.00362420126, -0.242, 0.8180000000000001, 0.502, 192.0, 0.0, 0.0, 0.0, 0.0, 0.0, 0.0, 0.0, 0.0, 0.0, 1.7272857156665428E9, 0.0, 2024-09-25 12:35:15.666
147.0, 119513.12357343717, 187500.0, 148580.49435383014, 134060.2423620513, 58555.06611526801, 108701.94240831643, 116991.869150623, 121313.7354032678, -0.242, 0.8180000000000001, 0.502, 192.0, 0.0, 0.0, 0.0, 0.0, 0.0, 0.0, 0.0, 0.0, 0.0, 1.7272857156714659E9, 0.0, 2024-09-25 12:35:15.671
148.0, 119519.04678571783, 187500.0, 148544.1057138569, 134062.27637079672, 58536.692981325745, 108704.26698973979, 117004.43083100687, 121310.69556602188, -0.242, 0.8180000000000001, 0.502, 192.0, 0.0, 0.0, 0.0, 0.0, 0.0, 0.0, 0.0, 0.0, 0.0, 1.727285715674471E9, 0.0, 2024-09-25 12:35:15.674
149.0, 119539.87861155017, 187500.0, 148563.059993155, 134073.8992779135, 58554.28380421207, 108707.64210315254, 117014.10913635603, 121309.42151658793, -0.242, 0.8180000000000001, 0.502, 192.0, 0.0, 0.0, 0.0, 0.0, 0.0, 0.0, 0.0, 0.0, 0.0, 1.727285715678563E9, 0.0, 2024-09-25 12:35:15.678
150.0, 119548.6181436322, 187500.0, 148615.54188913608, 134090.52897578824, 58589.17487730681, 108724.60707719412, 117015.04790962314, 121331.41563313194, -0.242, 0.8180000000000001, 0.502, 192.0, 0.0, 0.0, 0.0, 0.0, 0.0, 0.0, 0.0, 0.0, 0.0, 1.7272857156825447E9, 0.0, 2024-09-25 12:35:15.682
151.0, 119537.97871327147, 187500.0, 148602.68963607427, 134088.98670542083, 58576.277920756096, 108728.18335630697, 117018.33361605808, 121335.79657504518, -0.242, 0.8180000000000001, 0.502, 192.0, 0.0, 0.0, 0.0, 0.0, 0.0, 0.0, 0.0, 0.0, 0.0, 1.7272857156866045E9, 0.0, 2024-09-25 12:35:15.686
152.0, 119541.04090226186, 187500.0, 148555.3709930624, 134079.1966413494, 58545.27605119658, 108719.28736201375, 117025.88850568396, 121319.882132993, -0.24, 0.8220000000000001, 0.5, 192.0, 248.0, 128.0, 25.0, 176.0, 15.0, 160.0, 0.0, 0.0, 0.0, 1.7272857156905727E9, 0.0, 2024-09-25 12:35:15.690
