%OpenBCI Raw EXG Data
%Number of channels = 8
%Sample Rate = 250 Hz
%Board = OpenBCI_GUI$BoardCytonSerial
Sample Index, EXG Channel 0, EXG Channel 1, EXG Channel 2, EXG Channel 3, EXG Channel 4, EXG Channel 5, EXG Channel 6, EXG Channel 7, Accel Channel 0, Accel Channel 1, Accel Channel 2, Not Used, Digital Channel 0 (D11), Digital Channel 1 (D12), Digital Channel 2 (D13), Digital Channel 3 (D17), Not Used, Digital Channel 4 (D18), Analog Channel 0, Analog Channel 1, Analog Channel 2, Timestamp, Marker Channel, Timestamp (Formatted)
0.0, 0.0, 0.0, 0.0, 0.0, 0.0, 0.0, 0.0, 0.0, -0.254, 0.776, 0.52, 192.0, 248.0, 16.0, 24.0, 64.0, 16.0, 64.0, 0.0, 0.0, 0.0, 1.7272855578151417E9, 0.0, 2024-09-25 12:32:37.815
1.0, 116715.02044379956, 187500.0, 151988.28601697518, 136838.74301180162, 60110.3899014461, 112167.84860704525, 119628.95031320458, 124548.81513700666, -0.254, 0.776, 0.52, 192.0, 0.0, 0.0, 0.0, 0.0, 0.0, 0.0, 0.0, 0.0, 0.0, 1.7272855578311064E9, 0.0, 2024-09-25 12:32:37.831
2.0, 116727.02333057206, 187500.0, 152031.84956691856, 136846.32025317196, 60136.45203548099, 112169.79320881287, 119625.485792814, 124552.1008434416, -0.254, 0.776, 0.52, 192.0, 0.0, 0.0, 0.0, 0.0, 0.0, 0.0, 0.0, 0.0, 0.0, 1.7272855578351274E9, 0.0, 2024-09-25 12:32:37.835
3.0, 116714.7522228661, 187500.0, 152055.85534046357, 136852.802259064, 60151.20418682149, 112180.79026708487, 119627.69861551508, 124571.03277099524, -0.254, 0.776, 0.52, 192.0, 0.0, 0.0, 0.0, 0.0, 0.0, 0.0, 0.0, 0.0, 0.0, 1.727285557839194E9, 0.0, 2024-09-25 12:32:37.839
4.0, 116701.18471398173, 187500.0, 152013.72230216532, 136840.03941298003, 60123.82329986374, 112172.85539780324, 119626.7821939924, 124565.10955871458, -0.254, 0.776, 0.52, 192.0, 0.0, 0.0, 0.0, 0.0, 0.0, 0.0, 0.0, 0.0, 0.0, 1.7272855578431983E9, 0.0, 2024-09-25 12:32:37.843
5.0, 116704.80569658348, 187500.0, 151987.4813541748, 136829.1541134303, 60115.57550615973, 112166.39574365565, 119625.61990328073, 124561.77914879074, -0.254, 0.776, 0.52, 192.0, 0.0, 0.0, 0.0, 0.0, 0.0, 0.0, 0.0, 0.0, 0.0, 1.7272855578472493E9, 0.0, 2024-09-25 12:32:37.847
6.0, 116721.14482178031, 187500.0, 152023.75823542575, 136835.88198851133, 60139.916555871554, 112167.93801402308, 119622.22243812353, 124565.51189011478, -0.254, 0.776, 0.52, 192.0, 0.0, 0.0, 0.0, 0.0, 0.0, 0.0, 0.0, 0.0, 0.0, 1.7272855578511765E9, 0.0, 2024-09-25 12:32:37.851
7.0, 116716.2497897446, 187500.0, 152053.55311078468, 136845.29207292703, 60154.825169423246, 112176.31991819381, 119624.74818524698, 124571.85978554009, -0.254, 0.776, 0.52, 192.0, 0.0, 0.0, 0.0, 0.0, 0.0, 0.0, 0.0, 0.0, 0.0, 1.7272855578551557E9, 0.0, 2024-09-25 12:32:37.855
8.0, 116696.11086799037, 187500.0, 152021.92539238042, 136836.77605828954, 60135.312096513764, 112176.38697342719, 119624.05528116885, 124572.9997245073, -0.23600000000000002, 0.806, 0.484, 192.0, 248.0, 160.0, 25.0, 48.0, 15.0, 32.0, 0.0, 0.0, 0.0, 1.7272855578592312E9, 0.0, 2024-09-25 12:32:37.859
9.0, 116703.95633029418, 187500.0, 151977.93715929237, 136823.58852906091, 60110.94869505748, 112159.75727555243, 119622.66947301263, 124547.33992187261, -0.23600000000000002, 0.806, 0.484, 192.0, 0.0, 0.0, 0.0, 0.0, 0.0, 0.0, 0.0, 0.0, 0.0, 1.7272855578643196E9, 0.0, 2024-09-25 12:32:37.864
10.0, 116721.5024496916, 187500.0, 152004.24516251628, 136828.1035814409, 60134.90976511357, 112156.38216213968, 119624.21174338004, 124543.4507183374, -0.23600000000000002, 0.806, 0.484, 192.0, 0.0, 0.0, 0.0, 0.0, 0.0, 0.0, 0.0, 0.0, 0.0, 1.7272855578722396E9, 0.0, 2024-09-25 12:32:37.872
11.0, 116714.52870542154, 187500.0, 152043.91950892445, 136837.6477763233, 60160.39075379262, 112166.52985412239, 119622.84828696828, 124560.03571272323, -0.23600000000000002, 0.806, 0.484, 192.0, 0.0, 0.0, 0.0, 0.0, 0.0, 0.0, 0.0, 0.0, 0.0, 1.727285557876215E9, 0.0, 2024-09-25 12:32:37.876
13.0, 116707.040871029, 187500.0, 151985.69321461837, 136827.52243608504, 60120.71640738445, 112161.81363604232, 119628.14565040419, 124547.83166025064, -0.23600000000000002, 0.806, 0.484, 192.0, 0.0, 0.0, 0.0, 0.0, 0.0, 0.0, 0.0, 0.0, 0.0, 1.7272855578792844E9, 0.0, 2024-09-25 12:32:37.879
14.0, 116716.74152812261, 187500.0, 152004.60279042754, 136828.28239539653, 60133.61336393516, 112161.47835987549, 119625.731662003, 124549.1504131735, -0.23600000000000002, 0.806, 0.484, 192.0, 0.0, 0.0, 0.0, 0.0, 0.0, 0.0, 0.0, 0.0, 0.0, 1.7272855578832824E9, 0.0, 2024-09-25 12:32:37.883
15.0, 116722.50827819208, 187500.0, 152043.7406949688, 136834.22795942164, 60155.942756646014, 112166.70866807803, 119627.27393237043, 124553.95603823138, -0.23600000000000002, 0.806, 0.484, 192.0, 0.0, 0.0, 0.0, 0.0, 0.0, 0.0, 0.0, 0.0, 0.0, 1.7272855578892648E9, 0.0, 2024-09-25 12:32:37.889
16.0, 116714.68516763272, 187500.0, 152037.75042745477, 136835.59141583342, 60147.829073408735, 112173.70476409254, 119625.23992362499, 124567.12121571557, -0.23600000000000002, 0.806, 0.484, 192.0, 0.0, 0.0, 0.0, 0.0, 0.0, 0.0, 0.0, 0.0, 0.0, 1.7272855578922718E9, 0.0, 2024-09-25 12:32:37.892
17.0, 116711.89119957581, 187500.0, 151993.40456645543, 136829.1988169192, 60117.27423873833, 112166.19457795557, 119628.70444401556, 124555.38654987652, -0.23600000000000002, 0.806, 0.484, 192.0, 0.0, 0.0, 0.0, 0.0, 0.0, 0.0, 0.0, 0.0, 0.0, 1.7272855578962307E9, 0.0, 2024-09-25 12:32:37.896
18.0, 116712.07001353145, 187500.0, 151998.65722640243, 136829.2435204081, 60123.13039578562, 112161.85833953123, 119627.31863585934, 124553.71016904237, -0.23600000000000002, 0.8260000000000001, 0.466, 192.0, 248.0, 160.0, 25.0, 208.0, 14.0, 144.0, 0.0, 0.0, 0.0, 1.7272855578992982E9, 0.0, 2024-09-25 12:32:37.899
19.0, 116716.71917637816, 187500.0, 152040.99143040078, 136834.74204954412, 60144.543366973805, 112163.60177559874, 119625.55284804737, 124557.53231734423, -0.23600000000000002, 0.8260000000000001, 0.466, 192.0, 0.0, 0.0, 0.0, 0.0, 0.0, 0.0, 0.0, 0.0, 0.0, 1.7272855579032776E9, 0.0, 2024-09-25 12:32:37.903
20.0, 116714.12637402135, 187500.0, 152041.46081703436, 136837.35720364537, 60140.25183203839, 112167.69214483407, 119629.19618239359, 124555.96769523236, -0.23600000000000002, 0.8260000000000001, 0.466, 192.0, 0.0, 0.0, 0.0, 0.0, 0.0, 0.0, 0.0, 0.0, 0.0, 1.7272855579073215E9, 0.0, 2024-09-25 12:32:37.907
21.0, 116709.36545245236, 187500.0, 152006.7262061508, 136836.88781701183, 60121.81164286276, 112171.8719210472, 119637.15340341967, 124559.76749178977, -0.23600000000000002, 0.8260000000000001, 0.466, 192.0, 0.0, 0.0, 0.0, 0.0, 0.0, 0.0, 0.0, 0.0, 0.0, 1.727285557911326E9, 0.0, 2024-09-25 12:32:37.911
22.0, 116721.54715318051, 187500.0, 152008.7825666407, 136842.29693917002, 60128.13718654361, 112174.95646178204, 119640.21559241005, 124560.70626505688, -0.23600000000000002, 0.8260000000000001, 0.466, 192.0, 0.0, 0.0, 0.0, 0.0, 0.0, 0.0, 0.0, 0.0, 0.0, 1.7272855579153326E9, 0.0, 2024-09-25 12:32:37.915
23.0, 116733.52768820855, 187500.0, 152052.2790613507, 136851.01411950757, 60150.980669376935, 112178.1751129836, 119632.50424057296, 124567.23297443784, -0.23600000000000002, 0.8260000000000001, 0.466, 192.0, 0.0, 0.0, 0.0, 0.0, 0.0, 0.0, 0.0, 0.0, 0.0, 1.727285557919315E9, 0.0, 2024-09-25 12:32:37.919
24.0, 116733.61709518638, 187500.0, 152050.91560493896, 136848.51072412857, 60146.46561699696, 112171.20136871355, 119630.2914178719, 124553.08432019762, -0.23600000000000002, 0.8260000000000001, 0.466, 192.0, 0.0, 0.0, 0.0, 0.0, 0.0, 0.0, 0.0, 0.0, 0.0, 1.7272855579223237E9, 0.0, 2024-09-25 12:32:37.922
25.0, 116725.19048752672, 187500.0, 152016.67273243342, 136847.14726771682, 60128.606573177174, 112175.06822050431, 119636.37109236374, 124555.00657022078, -0.23600000000000002, 0.8260000000000001, 0.466, 192.0, 0.0, 0.0, 0.0, 0.0, 0.0, 0.0, 0.0, 0.0, 0.0, 1.7272855579272776E9, 0.0, 2024-09-25 12:32:37.927
26.0, 116728.11856605037, 187500.0, 152014.57166845462, 136853.56221837547, 60131.534651700815, 112186.5793688988, 119641.15436567717, 124572.50798612929, -0.23600000000000002, 0.8260000000000001, 0.466, 192.0, 0.0, 0.0, 0.0, 0.0, 0.0, 0.0, 0.0, 0.0, 0.0, 1.7272855579313457E9, 0.0, 2024-09-25 12:32:37.931
27.0, 116743.29540053551, 187500.0, 152046.60171825907, 136857.74199458864, 60150.17600657654, 112184.45595317555, 119638.91919123165, 124568.48467212734, -0.23600000000000002, 0.8260000000000001, 0.466, 192.0, 0.0, 0.0, 0.0, 0.0, 0.0, 0.0, 0.0, 0.0, 0.0, 1.7272855579353662E9, 0.0, 2024-09-25 12:32:37.935
28.0, 116741.3507987679, 187500.0, 152056.72705849732, 136860.98299753465, 60149.930137387535, 112182.28783396338, 119636.97458946402, 124556.5488405882, -0.228, 0.836, 0.454, 192.0, 248.0, 224.0, 26.0, 32.0, 14.0, 48.0, 0.0, 0.0, 0.0, 1.7272855579394126E9, 0.0, 2024-09-25 12:32:37.939
29.0, 116731.76190039658, 187500.0, 152026.44044476037, 136861.36297719038, 60132.69694241249, 112187.71930786602, 119644.99886572348, 124559.07458771166, -0.228, 0.836, 0.454, 192.0, 0.0, 0.0, 0.0, 0.0, 0.0, 0.0, 0.0, 0.0, 0.0, 1.727285557943369E9, 0.0, 2024-09-25 12:32:37.943
30.0, 116739.76382491158, 187500.0, 152008.7378631518, 136860.98299753465, 60130.75234064488, 112187.67460437711, 119648.46338611406, 124561.10859645708, -0.228, 0.836, 0.454, 192.0, 0.0, 0.0, 0.0, 0.0, 0.0, 0.0, 0.0, 0.0, 0.0, 1.7272855579464097E9, 0.0, 2024-09-25 12:32:37.946
31.0, 116759.25454607661, 187500.0, 152054.64834626298, 136872.71766337368, 60163.11766661616, 112198.89518009368, 119646.76465353546, 124585.8072740802, -0.228, 0.836, 0.454, 192.0, 0.0, 0.0, 0.0, 0.0, 0.0, 0.0, 0.0, 0.0, 0.0, 1.727285557950399E9, 0.0, 2024-09-25 12:32:37.950
32.0, 116769.17872061477, 187500.0, 152081.73866054282, 136885.54756469102, 60173.555931276795, 112209.4899069655, 119652.06201697137, 124593.71979161738, -0.228, 0.836, 0.454, 192.0, 0.0, 0.0, 0.0, 0.0, 0.0, 0.0, 0.0, 0.0, 0.0, 1.727285557954334E9, 0.0, 2024-09-25 12:32:37.954
33.0, 116761.44501703323, 187500.0, 152052.4355235619, 136892.05192232752, 60157.9991171359, 112217.67064543613, 119668.06586600136, 124587.48365491435, -0.228, 0.836, 0.454, 192.0, 0.0, 0.0, 0.0, 0.0, 0.0, 0.0, 0.0, 0.0, 0.0, 1.7272855579595628E9, 0.0, 2024-09-25 12:32:37.959
34.0, 116771.10097063793, 187500.0, 152025.72518893782, 136895.6729049293, 60152.34412578871, 112223.16917457213, 119679.97934579603, 124585.27083221327, -0.228, 0.836, 0.454, 192.0, 0.0, 0.0, 0.0, 0.0, 0.0, 0.0, 0.0, 0.0, 0.0, 1.7272855579644122E9, 0.0, 2024-09-25 12:32:37.964
35.0, 116781.00279343162, 187500.0, 152053.55311078468, 136900.6126404539, 60171.745439975915, 112225.60551471777, 119670.05517125789, 124592.35633520561, -0.228, 0.836, 0.454, 192.0, 0.0, 0.0, 0.0, 0.0, 0.0, 0.0, 0.0, 0.0, 0.0, 1.7272855579673324E9, 0.0, 2024-09-25 12:32:37.967
36.0, 116779.32641259748, 187500.0, 152086.4548786229, 136902.44548349924, 60188.88922797314, 112225.71727344004, 119663.93079327713, 124598.74893411982, -0.228, 0.836, 0.454, 192.0, 0.0, 0.0, 0.0, 0.0, 0.0, 0.0, 0.0, 0.0, 0.0, 1.7272855579714236E9, 0.0, 2024-09-25 12:32:37.971
37.0, 116761.84734843342, 187500.0, 152063.85726497858, 136891.9178118608, 60171.588977764724, 112220.57637221532, 119659.2369269415, 124594.59150965113, -0.228, 0.836, 0.454, 192.0, 0.0, 0.0, 0.0, 0.0, 0.0, 0.0, 0.0, 0.0, 0.0, 1.7272855579754214E9, 0.0, 2024-09-25 12:32:37.975
38.0, 116746.87167964836, 187500.0, 152024.31702903713, 136872.27062848458, 60147.963183875465, 112208.05939532035, 119646.45172911308, 124592.64690788352, -0.228, 0.836, 0.454, 192.0, 0.0, 0.0, 0.0, 0.0, 0.0, 0.0, 0.0, 0.0, 0.0, 1.7272855579794483E9, 0.0, 2024-09-25 12:32:37.979
39.0, 116751.02910411706, 187500.0, 152030.73197969582, 136864.26870396957, 60152.70175369999, 112196.45883994804, 119639.81326100985, 124579.54878563271, -0.222, 0.836, 0.456, 192.0, 249.0, 16.0, 26.0, 32.0, 14.0, 64.0, 0.0, 0.0, 0.0, 1.727285557983385E9, 0.0, 2024-09-25 12:32:37.983
40.0, 116752.79489192902, 187500.0, 152072.9544249719, 136877.4562331982, 60178.11568714568, 112202.49381095098, 119649.33510414782, 124578.9005850435, -0.222, 0.836, 0.456, 192.0, 0.0, 0.0, 0.0, 0.0, 0.0, 0.0, 0.0, 0.0, 0.0, 1.7272855579864957E9, 0.0, 2024-09-25 12:32:37.986
41.0, 116738.89210687783, 187500.0, 152062.4938085668, 136875.46692794168, 60172.170123120566, 112203.14201154019, 119653.60428733878, 124575.45841639739, -0.222, 0.836, 0.456, 192.0, 0.0, 0.0, 0.0, 0.0, 0.0, 0.0, 0.0, 0.0, 0.0, 1.727285557990432E9, 0.0, 2024-09-25 12:32:37.990
42.0, 116735.58404869844, 187500.0, 152025.70283719336, 136868.9625703052, 60155.36161129017, 112201.21976151703, 119656.62177284024, 124575.14549197501, -0.222, 0.836, 0.456, 192.0, 0.0, 0.0, 0.0, 0.0, 0.0, 0.0, 0.0, 0.0, 0.0, 1.72728555799644E9, 0.0, 2024-09-25 12:32:37.996
43.0, 116743.8541941469, 187500.0, 152036.45402627636, 136869.7001778722, 60167.23038759594, 112204.0360813184, 119651.01148498197, 124585.98608803585, -0.222, 0.836, 0.456, 192.0, 0.0, 0.0, 0.0, 0.0, 0.0, 0.0, 0.0, 0.0, 0.0, 1.727285557999452E9, 0.0, 2024-09-25 12:32:37.999
44.0, 116756.72879895316, 187500.0, 152078.0059192188, 136879.2667244991, 60192.59961755272, 112209.5346104544, 119653.71604606105, 124589.11533225958, -0.222, 0.836, 0.456, 192.0, 0.0, 0.0, 0.0, 0.0, 0.0, 0.0, 0.0, 0.0, 0.0, 1.7272855580034568E9, 0.0, 2024-09-25 12:32:38.003
45.0, 116751.56554598399, 187500.0, 152075.1895994174, 136881.77011987809, 60187.682233772546, 112210.02634883241, 119660.82390079784, 124579.81700656618, -0.222, 0.836, 0.456, 192.0, 0.0, 0.0, 0.0, 0.0, 0.0, 0.0, 0.0, 0.0, 0.0, 1.72728555800745E9, 0.0, 2024-09-25 12:32:38.007
46.0, 116736.58987719893, 187500.0, 152040.8349681896, 136873.1646982628, 60165.375192806154, 112210.20516278806, 119651.86085127127, 124589.83058808216, -0.222, 0.836, 0.456, 192.0, 0.0, 0.0, 0.0, 0.0, 0.0, 0.0, 0.0, 0.0, 0.0, 1.7272855580135045E9, 0.0, 2024-09-25 12:32:38.013
47.0, 116746.33523778144, 187500.0, 152029.03324711722, 136870.41543369478, 60160.971899148455, 112205.46659296354, 119651.21265068206, 124582.38745717854, -0.222, 0.836, 0.456, 192.0, 0.0, 0.0, 0.0, 0.0, 0.0, 0.0, 0.0, 0.0, 0.0, 1.7272855580164297E9, 0.0, 2024-09-25 12:32:38.016
48.0, 116761.33325831096, 187500.0, 152071.27804413773, 136884.67584665728, 60188.46454482849, 112210.60749418825, 119657.67230482964, 124578.4088466655, -0.222, 0.836, 0.456, 192.0, 0.0, 0.0, 0.0, 0.0, 0.0, 0.0, 0.0, 0.0, 0.0, 1.7272855580204692E9, 0.0, 2024-09-25 12:32:38.020
49.0, 116750.26914480557, 187500.0, 152087.81833503465, 136890.77787289355, 60192.018472196876, 112220.2410960485, 119652.03966522691, 124598.43600969744, -0.228, 0.854, 0.454, 192.0, 248.0, 224.0, 26.0, 176.0, 14.0, 48.0, 0.0, 0.0, 0.0, 1.7272855580234416E9, 0.0, 2024-09-25 12:32:38.023
50.0, 116736.23224928764, 187500.0, 152042.01961064574, 136873.56702966298, 60161.106009615185, 112208.86405812074, 119653.98426699452, 124584.62263162406, -0.228, 0.854, 0.454, 192.0, 0.0, 0.0, 0.0, 0.0, 0.0, 0.0, 0.0, 0.0, 0.0, 1.72728555802749E9, 0.0, 2024-09-25 12:32:38.027
51.0, 116745.41881625877, 187500.0, 152022.84181390307, 136867.12972725986, 60155.29455605681, 112204.57252318533, 119656.37590365123, 124577.47007339836, -0.228, 0.854, 0.454, 192.0, 0.0, 0.0, 0.0, 0.0, 0.0, 0.0, 0.0, 0.0, 0.0, 1.7272855580324905E9, 0.0, 2024-09-25 12:32:38.032
52.0, 116761.71323796669, 187500.0, 152055.9894509303, 136880.07138729948, 60178.026280167855, 112206.29360750839, 119656.8899937737, 124566.651829082, -0.228, 0.854, 0.454, 192.0, 0.0, 0.0, 0.0, 0.0, 0.0, 0.0, 0.0, 0.0, 0.0, 1.7272855580364964E9, 0.0, 2024-09-25 12:32:38.036
53.0, 116754.09129310743, 187500.0, 152079.81641051965, 136892.2754397721, 60191.7055477745, 112220.4869652375, 119659.1922234526, 124575.19019546393, -0.228, 0.854, 0.454, 192.0, 0.0, 0.0, 0.0, 0.0, 0.0, 0.0, 0.0, 0.0, 0.0, 1.7272855580404744E9, 0.0, 2024-09-25 12:32:38.040
54.0, 116737.79687139952, 187500.0, 152042.4889972793, 136879.82551811048, 60169.979652163944, 112214.87667737922, 119658.52167111894, 124566.80829129319, -0.228, 0.854, 0.454, 192.0, 0.0, 0.0, 0.0, 0.0, 0.0, 0.0, 0.0, 0.0, 0.0, 1.7272855580435116E9, 0.0, 2024-09-25 12:32:38.043
55.0, 116738.24390628863, 187500.0, 152013.69995042085, 136870.41543369478, 60156.83682642422, 112206.42771797511, 119654.58776409482, 124560.57215459016, -0.228, 0.854, 0.454, 192.0, 0.0, 0.0, 0.0, 0.0, 0.0, 0.0, 0.0, 0.0, 0.0, 1.72728555804652E9, 0.0, 2024-09-25 12:32:38.046
56.0, 116747.4528250042, 187500.0, 152048.6357270045, 136877.8138611095, 60179.52384704636, 112212.52974421141, 119651.63733382671, 124571.97154426236, -0.228, 0.854, 0.454, 192.0, 0.0, 0.0, 0.0, 0.0, 0.0, 0.0, 0.0, 0.0, 0.0, 1.7272855580505404E9, 0.0, 2024-09-25 12:32:38.050
57.0, 116750.5597174835, 187500.0, 152080.88929425352, 136890.59905893792, 60195.32653037626, 112221.98453211601, 119656.33120016233, 124571.904489029, -0.228, 0.854, 0.454, 192.0, 0.0, 0.0, 0.0, 0.0, 0.0, 0.0, 0.0, 0.0, 0.0, 1.727285558054474E9, 0.0, 2024-09-25 12:32:38.054
58.0, 116743.63067670235, 187500.0, 152060.05746842118, 136890.19672753772, 60184.62004478217, 112228.51124149696, 119660.86860428675, 124571.07747448415, -0.228, 0.854, 0.454, 192.0, 0.0, 0.0, 0.0, 0.0, 0.0, 0.0, 0.0, 0.0, 0.0, 1.7272855580595124E9, 0.0, 2024-09-25 12:32:38.059
59.0, 116751.56554598399, 187500.0, 152033.07891286362, 136885.59226817993, 60171.65603299809, 112227.21484031856, 119663.50611013248, 124568.5517273607, -0.232, 0.848, 0.448, 192.0, 248.0, 192.0, 26.0, 128.0, 14.0, 0.0, 0.0, 0.0, 0.0, 1.7272855580635345E9, 0.0, 2024-09-25 12:32:38.063
60.0, 116761.44501703323, 187500.0, 152056.8835207085, 136886.12871004688, 60186.72110876097, 112221.69395943808, 119662.70144733209, 124562.6508668245, -0.232, 0.848, 0.448, 192.0, 0.0, 0.0, 0.0, 0.0, 0.0, 0.0, 0.0, 0.0, 0.0, 1.7272855580675564E9, 0.0, 2024-09-25 12:32:38.067
61.0, 116756.43822627525, 187500.0, 152095.61909384956, 136891.3590182494, 60210.54806835033, 112222.76684317195, 119658.92400251914, 124569.49050062783, -0.232, 0.848, 0.448, 192.0, 0.0, 0.0, 0.0, 0.0, 0.0, 0.0, 0.0, 0.0, 0.0, 1.7272855580715325E9, 0.0, 2024-09-25 12:32:38.071
62.0, 116745.08354009195, 187500.0, 152074.5413988282, 136883.4017972233, 60192.845486741724, 112223.03506410541, 119659.21457519705, 124569.8034250502, -0.232, 0.848, 0.448, 192.0, 0.0, 0.0, 0.0, 0.0, 0.0, 0.0, 0.0, 0.0, 0.0, 1.727285558074542E9, 0.0, 2024-09-25 12:32:38.074
63.0, 116751.18556632825, 187500.0, 152038.95742165536, 136880.27255299958, 60174.07002139927, 112221.67160769363, 119668.87052880175, 124560.19217493442, -0.232, 0.848, 0.448, 192.0, 0.0, 0.0, 0.0, 0.0, 0.0, 0.0, 0.0, 0.0, 0.0, 1.727285558078535E9, 0.0, 2024-09-25 12:32:38.078
64.0, 116762.85317693392, 187500.0, 152062.1808841444, 136892.29779151652, 60195.10301293171, 112229.85234616428, 119673.16206373717, 124568.46232038288, -0.232, 0.848, 0.448, 192.0, 0.0, 0.0, 0.0, 0.0, 0.0, 0.0, 0.0, 0.0, 0.0, 1.7272855580825903E9, 0.0, 2024-09-25 12:32:38.082
65.0, 116767.16706361379, 187500.0, 152100.04473925172, 136899.94208812024, 60211.88917301765, 112231.6404857207, 119666.97063052305, 124569.75872156129, -0.232, 0.848, 0.448, 192.0, 0.0, 0.0, 0.0, 0.0, 0.0, 0.0, 0.0, 0.0, 0.0, 1.7272855580875661E9, 0.0, 2024-09-25 12:32:38.087
66.0, 116756.88526116435, 187500.0, 152096.37905316104, 136899.4727014867, 60204.06606245829, 112236.31200031185, 119670.43515091362, 124577.64888735401, -0.232, 0.848, 0.448, 192.0, 0.0, 0.0, 0.0, 0.0, 0.0, 0.0, 0.0, 0.0, 0.0, 1.7272855580916216E9, 0.0, 2024-09-25 12:32:38.091
67.0, 116748.72687443816, 187500.0, 152060.6833172659, 136889.6155821819, 60124.98559057541, 112238.68128522413, 119669.33991543531, 124590.52349216027, -0.232, 0.848, 0.448, 192.0, 0.0, 0.0, 0.0, 0.0, 0.0, 0.0, 0.0, 0.0, 0.0, 1.7272855580946157E9, 0.0, 2024-09-25 12:32:38.094
68.0, 116759.16513909878, 187500.0, 152057.30820385317, 136885.18993677973, 60053.102380407145, 112231.14874734268, 119665.9424502781, 124581.53809088924, -0.232, 0.848, 0.448, 192.0, 0.0, 0.0, 0.0, 0.0, 0.0, 0.0, 0.0, 0.0, 0.0, 1.727285558098618E9, 0.0, 2024-09-25 12:32:38.098
69.0, 116765.78125545756, 187500.0, 152098.01073050627, 136893.7730066506, 60091.413270403544, 112236.8931456677, 119667.21649971206, 124586.2543089693, -0.242, 0.854, 0.444, 192.0, 248.0, 112.0, 26.0, 176.0, 13.0, 224.0, 0.0, 0.0, 0.0, 1.7272855581026123E9, 0.0, 2024-09-25 12:32:38.102
70.0, 116757.75697919811, 187500.0, 152100.87175379656, 136897.03636134104, 60114.14499451459, 112243.73277947101, 119674.83844457132, 124597.40782945251, -0.242, 0.854, 0.444, 192.0, 0.0, 0.0, 0.0, 0.0, 0.0, 0.0, 0.0, 0.0, 0.0, 1.7272855581066203E9, 0.0, 2024-09-25 12:32:38.106
71.0, 116747.0057901151, 187500.0, 152051.60850901707, 136885.2569920131, 60097.11296523964, 112233.5403839994, 119670.81513056936, 124588.48948341483, -0.242, 0.854, 0.444, 192.0, 0.0, 0.0, 0.0, 0.0, 0.0, 0.0, 0.0, 0.0, 0.0, 1.7272855581136072E9, 0.0, 2024-09-25 12:32:38.113
72.0, 116758.38282804286, 187500.0, 152033.2353750748, 136878.19384076522, 60096.598875117175, 112222.90095363867, 119667.23885145651, 124575.07843674165, -0.242, 0.854, 0.444, 192.0, 0.0, 0.0, 0.0, 0.0, 0.0, 0.0, 0.0, 0.0, 0.0, 1.7272855581176429E9, 0.0, 2024-09-25 12:32:38.117
73.0, 116777.44886606323, 187500.0, 152066.56182605767, 136889.32500950398, 60129.27712551083, 112225.5384594844, 119681.70043011909, 124560.7509685458, -0.242, 0.854, 0.444, 192.0, 0.0, 0.0, 0.0, 0.0, 0.0, 0.0, 0.0, 0.0, 0.0, 1.7272855581206748E9, 0.0, 2024-09-25 12:32:38.120
74.0, 116762.36143855589, 187500.0, 152085.22553267784, 136896.18699505174, 60147.538500730814, 112237.72016021254, 119683.55562490888, 124580.77813157775, -0.242, 0.854, 0.444, 192.0, 0.0, 0.0, 0.0, 0.0, 0.0, 0.0, 0.0, 0.0, 0.0, 1.7272855581236637E9, 0.0, 2024-09-25 12:32:38.123
75.0, 116744.21182205819, 187500.0, 152052.90491019547, 136887.00042808062, 60129.38888423311, 112237.25077357898, 119681.18633999662, 124592.26692822778, -0.242, 0.854, 0.444, 192.0, 0.0, 0.0, 0.0, 0.0, 0.0, 0.0, 0.0, 0.0, 0.0, 1.727285558126639E9, 0.0, 2024-09-25 12:32:38.126
76.0, 116752.0125808731, 187500.0, 152033.01185763025, 136882.39596872282, 60119.0400265503, 112234.993247389, 119679.97934579603, 124589.83058808216, -0.242, 0.854, 0.444, 192.0, 0.0, 0.0, 0.0, 0.0, 0.0, 0.0, 0.0, 0.0, 0.0, 1.7272855581306617E9, 0.0, 2024-09-25 12:32:38.130
77.0, 116761.46736877768, 187500.0, 152078.83293376362, 136895.6729049293, 60148.745494931405, 112247.28670683941, 119677.23008122803, 124610.4612482144, -0.242, 0.854, 0.444, 192.0, 0.0, 0.0, 0.0, 0.0, 0.0, 0.0, 0.0, 0.0, 0.0, 1.7272855581346638E9, 0.0, 2024-09-25 12:32:38.134
78.0, 116761.60147924442, 187500.0, 152097.72015782836, 136902.28902128804, 60155.56277699027, 112245.40916030516, 119680.42638068514, 124603.912187089, -0.242, 0.854, 0.444, 192.0, 0.0, 0.0, 0.0, 0.0, 0.0, 0.0, 0.0, 0.0, 0.0, 1.7272855581387053E9, 0.0, 2024-09-25 12:32:38.138
79.0, 116757.37699954236, 187500.0, 152058.42579107592, 136896.29875377403, 60132.451073223485, 112236.9378491566, 119690.48466569003, 124581.76160833379, -0.242, 0.854, 0.444, 192.0, 0.0, 0.0, 0.0, 0.0, 0.0, 0.0, 0.0, 0.0, 0.0, 1.7272855581456747E9, 0.0, 2024-09-25 12:32:38.145
80.0, 116753.17487158476, 187500.0, 152033.57065124164, 136888.2074222812, 60119.91174458406, 112231.50637525397, 119687.69069763312, 124582.54391938972, -0.24, 0.864, 0.442, 192.0, 248.0, 128.0, 27.0, 0.0, 13.0, 208.0, 0.0, 0.0, 0.0, 1.727285558149701E9, 0.0, 2024-09-25 12:32:38.149
81.0, 116759.90274666582, 187500.0, 152077.42477386293, 136898.0198380971, 60149.32664028724, 112242.57048875935, 119684.4496946871, 124611.1094488036, -0.24, 0.864, 0.442, 192.0, 0.0, 0.0, 0.0, 0.0, 0.0, 0.0, 0.0, 0.0, 0.0, 1.727285558152727E9, 0.0, 2024-09-25 12:32:38.152
82.0, 116764.97659265717, 187500.0, 152110.28183821225, 136908.63691671335, 60166.44807654001, 112253.36638133126, 119682.5497964084, 124625.86160014411, -0.24, 0.864, 0.442, 192.0, 0.0, 0.0, 0.0, 0.0, 0.0, 0.0, 0.0, 0.0, 0.0, 1.72728555815673E9, 0.0, 2024-09-25 12:32:38.156
83.0, 116762.56260425599, 187500.0, 152075.41311686195, 136903.27249804407, 60142.934041373024, 112243.71042772656, 119689.0988575338, 124605.29799524523, -0.24, 0.864, 0.442, 192.0, 0.0, 0.0, 0.0, 0.0, 0.0, 0.0, 0.0, 0.0, 0.0, 1.727285558159687E9, 0.0, 2024-09-25 12:32:38.159
84.0, 116759.43336003226, 187500.0, 152040.70085772287, 136900.79145440954, 60131.06526506726, 112243.6433724932, 119697.99485182701, 124600.17944576497, -0.24, 0.864, 0.442, 192.0, 0.0, 0.0, 0.0, 0.0, 0.0, 0.0, 0.0, 0.0, 0.0, 1.727285558162721E9, 0.0, 2024-09-25 12:32:38.162
85.0, 116769.44694154823, 187500.0, 152063.9466719564, 136908.88278590236, 60147.270279797354, 112245.990305661, 119698.62070067176, 124604.91801558949, -0.24, 0.864, 0.442, 192.0, 0.0, 0.0, 0.0, 0.0, 0.0, 0.0, 0.0, 0.0, 0.0, 1.7272855581667497E9, 0.0, 2024-09-25 12:32:38.166
86.0, 116771.90563343832, 187500.0, 152107.51022189978, 136918.49403601815, 60172.39364056512, 112252.6511255087, 119696.22906401505, 124616.47386747289, -0.24, 0.864, 0.442, 192.0, 0.0, 0.0, 0.0, 0.0, 0.0, 0.0, 0.0, 0.0, 0.0, 1.7272855581716943E9, 0.0, 2024-09-25 12:32:38.171
87.0, 116762.02616238907, 187500.0, 152090.2546751803, 136910.62622196987, 60157.395620035604, 112253.72400924255, 119691.31168023488, 124616.20564653941, -0.24, 0.864, 0.442, 192.0, 0.0, 0.0, 0.0, 0.0, 0.0, 0.0, 0.0, 0.0, 0.0, 1.7272855581747465E9, 0.0, 2024-09-25 12:32:38.174
88.0, 116765.26716533508, 187500.0, 152054.6930497519, 136909.2180620692, 60139.76009366037, 112252.87464295325, 119703.13575305174, 124614.19398953844, -0.24, 0.864, 0.442, 192.0, 0.0, 0.0, 0.0, 0.0, 0.0, 0.0, 0.0, 0.0, 0.0, 1.727285558177709E9, 0.0, 2024-09-25 12:32:38.177
89.0, 116788.0659446795, 187500.0, 152068.05939293618, 136916.68354471726, 60152.76880893336, 112252.11468364176, 119708.94720661012, 124607.19789352393, -0.24, 0.864, 0.442, 192.0, 0.0, 0.0, 0.0, 0.0, 0.0, 0.0, 0.0, 0.0, 0.0, 1.7272855581827607E9, 0.0, 2024-09-25 12:32:38.182
90.0, 116789.13882841336, 187500.0, 152117.27793422676, 136929.7593152236, 60185.55881804929, 112265.3469163593, 119707.76256415398, 124622.95587336492, -0.24, 0.858, 0.444, 192.0, 248.0, 128.0, 26.0, 208.0, 13.0, 224.0, 0.0, 0.0, 0.0, 1.7272855581866913E9, 0.0, 2024-09-25 12:32:38.186
91.0, 116774.1631596283, 187500.0, 152111.26531496827, 136925.75835296614, 60181.26728311388, 112266.30804137088, 119702.755773396, 124629.21436181241, -0.24, 0.858, 0.444, 192.0, 0.0, 0.0, 0.0, 0.0, 0.0, 0.0, 0.0, 0.0, 0.0, 1.7272855581917393E9, 0.0, 2024-09-25 12:32:38.191
92.0, 116763.38961880084, 187500.0, 152069.1546284145, 136910.82738766997, 60155.42866652354, 112256.96501218856, 119699.49241870551, 124622.68765243146, -0.24, 0.858, 0.444, 192.0, 0.0, 0.0, 0.0, 0.0, 0.0, 0.0, 0.0, 0.0, 0.0, 1.7272855581967392E9, 0.0, 2024-09-25 12:32:38.196
93.0, 116785.2719766226, 187500.0, 152066.80769524668, 136911.47558825917, 60160.92719565955, 112254.57337553185, 119705.66150017519, 124605.8120853677, -0.24, 0.858, 0.444, 192.0, 0.0, 0.0, 0.0, 0.0, 0.0, 0.0, 0.0, 0.0, 0.0, 1.7272855581997776E9, 0.0, 2024-09-25 12:32:38.199
94.0, 116800.78408727457, 187500.0, 152113.27697196926, 136925.9148151773, 60194.119536175676, 112263.82699773634, 119706.9579013536, 124609.03073656926, -0.24, 0.858, 0.444, 192.0, 0.0, 0.0, 0.0, 0.0, 0.0, 0.0, 0.0, 0.0, 0.0, 1.7272855582038949E9, 0.0, 2024-09-25 12:32:38.203
95.0, 116786.70248826772, 187500.0, 152126.48685294235, 136936.24132111567, 60204.02135896938, 112274.98051821954, 119710.37771825526, 124621.2124372974, -0.24, 0.858, 0.444, 192.0, 0.0, 0.0, 0.0, 0.0, 0.0, 0.0, 0.0, 0.0, 0.0, 1.7272855582067375E9, 0.0, 2024-09-25 12:32:38.206
96.0, 116774.31962183949, 187500.0, 152089.27119842425, 136929.78166696808, 60185.82703898276, 112276.34397463131, 119710.1094973218, 124625.30280653272, -0.24, 0.858, 0.444, 192.0, 0.0, 0.0, 0.0, 0.0, 0.0, 0.0, 0.0, 0.0, 0.0, 1.7272855582107897E9, 0.0, 2024-09-25 12:32:38.210
97.0, 116788.0659446795, 187500.0, 152074.67550929493, 136926.7194779777, 60183.703623259506, 112271.8959774847, 119713.17168631217, 124616.00448083931, -0.24, 0.858, 0.444, 192.0, 0.0, 0.0, 0.0, 0.0, 0.0, 0.0, 0.0, 0.0, 0.0, 1.7272855582158186E9, 0.0, 2024-09-25 12:32:38.215
98.0, 116792.84921799293, 187500.0, 152111.95821904638, 136930.318108835, 60207.93291424905, 112271.0019077065, 119706.37675599776, 124617.05501282871, -0.24, 0.858, 0.444, 192.0, 0.0, 0.0, 0.0, 0.0, 0.0, 0.0, 0.0, 0.0, 0.0, 1.7272855582188191E9, 0.0, 2024-09-25 12:32:38.218
99.0, 116785.2719766226, 187500.0, 152126.66566689798, 136935.5260652931, 60216.80655679781, 112279.56262583288, 119708.47781997656, 124627.13564957806, -0.24, 0.858, 0.444, 192.0, 0.0, 0.0, 0.0, 0.0, 0.0, 0.0, 0.0, 0.0, 0.0, 1.7272855582247975E9, 0.0, 2024-09-25 12:32:38.224
100.0, 116786.05428767852, 187500.0, 152077.0894976961, 136927.74765822265, 60188.97863495096, 112269.70550652809, 119719.27371254847, 124598.27954748627, -0.232, 0.854, 0.45, 192.0, 248.0, 192.0, 26.0, 176.0, 14.0, 16.0, 0.0, 0.0, 0.0, 1.7272855582298224E9, 0.0, 2024-09-25 12:32:38.229
101.0, 116789.74232551365, 187500.0, 152065.645404535, 136926.9653471667, 60191.01264369639, 112271.09131468432, 119717.75379392551, 124601.16292252099, -0.232, 0.854, 0.45, 192.0, 0.0, 0.0, 0.0, 0.0, 0.0, 0.0, 0.0, 0.0, 0.0, 1.7272855582328598E9, 0.0, 2024-09-25 12:32:38.232
102.0, 116793.25154939313, 187500.0, 152115.22157373687, 136938.25297811665, 60222.39449291164, 112281.12724794475, 119714.17751481266, 124627.24740830033, -0.232, 0.854, 0.45, 192.0, 0.0, 0.0, 0.0, 0.0, 0.0, 0.0, 0.0, 0.0, 0.0, 1.7272855582368565E9, 0.0, 2024-09-25 12:32:38.236
103.0, 116781.89686320984, 187500.0, 152139.78614089324, 136944.39970784186, 60232.273963960884, 112286.69283231412, 119707.91902636517, 124646.24639108735, -0.232, 0.854, 0.45, 192.0, 0.0, 0.0, 0.0, 0.0, 0.0, 0.0, 0.0, 0.0, 0.0, 1.7272855582398665E9, 0.0, 2024-09-25 12:32:38.239
104.0, 116771.50330203812, 187500.0, 152098.41306190647, 136931.92743443578, 60201.875591501666, 112274.57818681934, 119710.51182872198, 124630.91309439101, -0.232, 0.854, 0.45, 192.0, 0.0, 0.0, 0.0, 0.0, 0.0, 0.0, 0.0, 0.0, 0.0, 1.7272855582438831E9, 0.0, 2024-09-25 12:32:38.243
105.0, 116775.6607265068, 187500.0, 152071.38980286, 136926.40655355534, 60189.87270472917, 112271.91832922916, 119715.25039854652, 124623.35820476511, -0.232, 0.854, 0.45, 192.0, 0.0, 0.0, 0.0, 0.0, 0.0, 0.0, 0.0, 0.0, 0.0, 1.7272855582469184E9, 0.0, 2024-09-25 12:32:38.246
106.0, 116780.13107539786, 187500.0, 152102.36932067506, 136926.40655355534, 60210.07868171677, 112269.03495419443, 119704.27569201896, 124631.85186765813, -0.232, 0.854, 0.45, 192.0, 0.0, 0.0, 0.0, 0.0, 0.0, 0.0, 0.0, 0.0, 0.0, 1.7272855582529137E9, 0.0, 2024-09-25 12:32:38.252
107.0, 116783.75205799962, 187500.0, 152133.79587337922, 136933.33559433647, 60221.43336790006, 112269.1467129167, 119697.59252042681, 124630.77898392428, -0.232, 0.854, 0.45, 192.0, 0.0, 0.0, 0.0, 0.0, 0.0, 0.0, 0.0, 0.0, 0.0, 1.7272855582559264E9, 0.0, 2024-09-25 12:32:38.255
108.0, 116777.5159212966, 187500.0, 152107.89020155554, 136934.58729202597, 60205.1612979366, 112274.22055890805, 119711.00356710001, 124626.12982107757, -0.232, 0.854, 0.45, 192.0, 0.0, 0.0, 0.0, 0.0, 0.0, 0.0, 0.0, 0.0, 0.0, 1.7272855582588744E9, 0.0, 2024-09-25 12:32:38.258
109.0, 116777.3147555965, 187500.0, 152082.4986198543, 136935.1237338929, 60196.89115248813, 112277.57332057635, 119715.45156424661, 124633.12591709208, -0.232, 0.854, 0.45, 192.0, 0.0, 0.0, 0.0, 0.0, 0.0, 0.0, 0.0, 0.0, 0.0, 1.7272855582628558E9, 0.0, 2024-09-25 12:32:38.262
110.0, 116786.50132256762, 187500.0, 152101.85523055258, 136937.09068740497, 60211.77741429537, 112276.99217522051, 119715.02688110196, 124629.6166932126, -0.242, 0.856, 0.46, 192.0, 248.0, 112.0, 26.0, 192.0, 14.0, 96.0, 0.0, 0.0, 0.0, 1.7272855582659252E9, 0.0, 2024-09-25 12:32:38.265
111.0, 116794.19032266026, 187500.0, 152131.7171611449, 136942.63392002988, 60227.20011796953, 112275.22638740855, 119717.55262822541, 124614.08223081616, -0.242, 0.856, 0.46, 192.0, 0.0, 0.0, 0.0, 0.0, 0.0, 0.0, 0.0, 0.0, 0.0, 1.7272855582709217E9, 0.0, 2024-09-25 12:32:38.270
112.0, 116786.3672121009, 187500.0, 152116.2050504929, 136940.64461477337, 60215.9124870196, 112275.87458799775, 119717.01618635848, 124613.1658092935, -0.242, 0.856, 0.46, 192.0, 0.0, 0.0, 0.0, 0.0, 0.0, 0.0, 0.0, 0.0, 0.0, 1.7272855582749455E9, 0.0, 2024-09-25 12:32:38.274
113.0, 116776.37598232938, 187500.0, 152079.21291341935, 136930.65338500185, 60196.5111728324, 112274.24291065251, 119715.98800611353, 124617.25617852881, -0.242, 0.856, 0.46, 192.0, 0.0, 0.0, 0.0, 0.0, 0.0, 0.0, 0.0, 0.0, 0.0, 1.7272855582789085E9, 0.0, 2024-09-25 12:32:38.278
114.0, 116786.81424699, 187500.0, 152092.46749788136, 136932.4638763027, 60210.95039975052, 112276.2545676535, 119717.39616601422, 124626.91213213351, -0.242, 0.856, 0.46, 192.0, 0.0, 0.0, 0.0, 0.0, 0.0, 0.0, 0.0, 0.0, 0.0, 1.7272855582828884E9, 0.0, 2024-09-25 12:32:38.282
115.0, 116786.25545337862, 187500.0, 152136.0086960803, 136939.43762057277, 60231.715170349504, 112279.83084676634, 119708.254302532, 124638.75855669483, -0.242, 0.856, 0.46, 192.0, 0.0, 0.0, 0.0, 0.0, 0.0, 0.0, 0.0, 0.0, 0.0, 1.7272855582869158E9, 0.0, 2024-09-25 12:32:38.286
116.0, 116774.09610439494, 187500.0, 152130.73368438886, 136938.14121939437, 60222.12627197817, 112279.60732932179, 119708.07548857636, 124640.6137514846, -0.242, 0.856, 0.46, 192.0, 0.0, 0.0, 0.0, 0.0, 0.0, 0.0, 0.0, 0.0, 0.0, 1.7272855582920516E9, 0.0, 2024-09-25 12:32:38.292
117.0, 116765.46833103518, 187500.0, 152091.30520716967, 136931.27923384658, 60201.67442580157, 112276.32162288686, 119712.23291304505, 124641.28430381828, -0.242, 0.856, 0.46, 192.0, 0.0, 0.0, 0.0, 0.0, 0.0, 0.0, 0.0, 0.0, 0.0, 1.72728555829492E9, 0.0, 2024-09-25 12:32:38.294
118.0, 116773.69377299474, 187500.0, 152083.43739312142, 136924.52900702108, 60199.573361822775, 112264.56460530337, 119702.5546076959, 124632.16479208051, -0.242, 0.856, 0.46, 192.0, 0.0, 0.0, 0.0, 0.0, 0.0, 0.0, 0.0, 0.0, 0.0, 1.7272855582989535E9, 0.0, 2024-09-25 12:32:38.298
119.0, 116789.02706969107, 187500.0, 152123.9611058189, 136931.6592135023, 60225.34492317974, 112266.06217218188, 119702.9569390961, 124628.70027168993, -0.242, 0.856, 0.46, 192.0, 0.0, 0.0, 0.0, 0.0, 0.0, 0.0, 0.0, 0.0, 0.0, 1.727285558302954E9, 0.0, 2024-09-25 12:32:38.302
120.0, 116779.84050271995, 187500.0, 152127.09035004262, 136933.49205654766, 60224.47320514599, 112268.74438151652, 119707.2037705426, 124624.47579198788, -0.242, 0.856, 0.46, 192.0, 0.0, 0.0, 0.0, 0.0, 0.0, 0.0, 0.0, 0.0, 0.0, 1.7272855583070016E9, 0.0, 2024-09-25 12:32:38.307
121.0, 116767.05530489152, 187500.0, 152087.61716933455, 136929.53579777907, 60200.48978334544, 112269.92902397264, 119711.71882292257, 124618.91020761851, -0.23600000000000002, 0.854, 0.46, 192.0, 248.0, 160.0, 26.0, 176.0, 14.0, 96.0, 0.0, 0.0, 0.0, 1.7272855583099082E9, 0.0, 2024-09-25 12:32:38.309
122.0, 116775.6607265068, 187500.0, 152080.7551837868, 136929.58050126798, 60199.52865833386, 112269.50434082799, 119703.44867747411, 124623.73818442086, -0.23600000000000002, 0.854, 0.46, 192.0, 0.0, 0.0, 0.0, 0.0, 0.0, 0.0, 0.0, 0.0, 0.0, 1.727285558313966E9, 0.0, 2024-09-25 12:32:38.313
123.0, 116791.37400285888, 187500.0, 152122.64235289601, 136942.63392002988, 60227.84831855873, 112274.89111124173, 119704.02982282995, 124629.84021065716, -0.23600000000000002, 0.854, 0.46, 192.0, 0.0, 0.0, 0.0, 0.0, 0.0, 0.0, 0.0, 0.0, 0.0, 1.7272855583189971E9, 0.0, 2024-09-25 12:32:38.318
124.0, 116790.07760168047, 187500.0, 152144.59176595113, 136955.59793181394, 60240.49940592044, 112287.05046022541, 119713.19403805662, 124636.83630667167, -0.23600000000000002, 0.854, 0.46, 192.0, 0.0, 0.0, 0.0, 0.0, 0.0, 0.0, 0.0, 0.0, 0.0, 1.7272855583239372E9, 0.0, 2024-09-25 12:32:38.323
125.0, 116778.03001141906, 187500.0, 152106.79496607723, 136944.51146656412, 60214.34786490773, 112284.12238170176, 119709.37188975477, 124637.08217586068, -0.23600000000000002, 0.854, 0.46, 192.0, 0.0, 0.0, 0.0, 0.0, 0.0, 0.0, 0.0, 0.0, 0.0, 1.7272855583279676E9, 0.0, 2024-09-25 12:32:38.327
126.0, 116780.80162773152, 187500.0, 152081.55984658716, 136932.79915246955, 60202.54614383533, 112277.39450662071, 119706.39910774221, 124628.81203041221, -0.23600000000000002, 0.854, 0.46, 192.0, 0.0, 0.0, 0.0, 0.0, 0.0, 0.0, 0.0, 0.0, 0.0, 1.7272855583319604E9, 0.0, 2024-09-25 12:32:38.331
127.0, 116794.21267440471, 187500.0, 152117.38969294904, 136938.99058568367, 60224.07087374579, 112275.60636706429, 119708.0531368319, 124628.67791994548, -0.23600000000000002, 0.854, 0.46, 192.0, 0.0, 0.0, 0.0, 0.0, 0.0, 0.0, 0.0, 0.0, 0.0, 1.7272855583350096E9, 0.0, 2024-09-25 12:32:38.335
128.0, 116796.98429071717, 187500.0, 152144.1670828065, 136956.15672542533, 60237.97365879699, 112285.7093555581, 119717.30675903641, 124628.61086471211, -0.23600000000000002, 0.854, 0.46, 192.0, 0.0, 0.0, 0.0, 0.0, 0.0, 0.0, 0.0, 0.0, 0.0, 1.727285558341016E9, 0.0, 2024-09-25 12:32:38.341
129.0, 116789.27293888008, 187500.0, 152110.21478297887, 136949.98764395568, 60219.846394043736, 112281.93191074514, 119722.93939863914, 124620.83245764166, -0.23600000000000002, 0.854, 0.46, 192.0, 0.0, 0.0, 0.0, 0.0, 0.0, 0.0, 0.0, 0.0, 0.0, 1.7272855583440344E9, 0.0, 2024-09-25 12:32:38.344
130.0, 116792.13396217037, 187500.0, 152085.94078850042, 136943.8632659749, 60210.97275149498, 112281.97661423405, 119724.28050330645, 124626.50980073331, -0.23600000000000002, 0.854, 0.46, 192.0, 0.0, 0.0, 0.0, 0.0, 0.0, 0.0, 0.0, 0.0, 0.0, 1.7272855583490117E9, 0.0, 2024-09-25 12:32:38.349
131.0, 116801.49934309714, 187500.0, 152121.4577104399, 136955.0838416915, 60235.49261516245, 112294.47123938457, 119729.26494231999, 124643.58653349716, -0.232, 0.854, 0.456, 192.0, 248.0, 192.0, 26.0, 176.0, 14.0, 64.0, 0.0, 0.0, 0.0, 1.727285558352007E9, 0.0, 2024-09-25 12:32:38.352
132.0, 116798.79478201804, 187500.0, 152149.35268752012, 136957.96721672622, 60247.96488856851, 112298.04751849742, 119725.62160797378, 124646.40285329854, -0.232, 0.854, 0.456, 192.0, 0.0, 0.0, 0.0, 0.0, 0.0, 0.0, 0.0, 0.0, 0.0, 1.727285558357064E9, 0.0, 2024-09-25 12:32:38.357
133.0, 116795.46437209421, 187500.0, 152122.12826277356, 136947.05956543202, 60229.50234764843, 112295.23119869606, 119725.93453239615, 124640.47964101788, -0.232, 0.854, 0.456, 192.0, 0.0, 0.0, 0.0, 0.0, 0.0, 0.0, 0.0, 0.0, 0.0, 1.7272855583680634E9, 0.0, 2024-09-25 12:32:38.368
134.0, 116785.1155144114, 187500.0, 152091.05933798067, 136938.90117870586, 60217.43240564256, 112298.69571908662, 119723.6099509728, 124651.94608592345, -0.232, 0.854, 0.456, 192.0, 0.0, 0.0, 0.0, 0.0, 0.0, 0.0, 0.0, 0.0, 0.0, 1.7272855583740408E9, 0.0, 2024-09-25 12:32:38.374
135.0, 116788.11064816841, 187500.0, 152105.02917826525, 136940.48815256217, 60228.429463914574, 112297.86870454178, 119725.84512541833, 124652.50487953484, -0.232, 0.854, 0.456, 192.0, 0.0, 0.0, 0.0, 0.0, 0.0, 0.0, 0.0, 0.0, 0.0, 1.727285558377064E9, 0.0, 2024-09-25 12:32:38.377
136.0, 116798.50420934013, 187500.0, 152145.9552223629, 136953.0274812016, 60251.854092103735, 112305.9600360346, 119729.64492197573, 124655.0753301472, -0.232, 0.854, 0.456, 192.0, 0.0, 0.0, 0.0, 0.0, 0.0, 0.0, 0.0, 0.0, 0.0, 1.7272855583810384E9, 0.0, 2024-09-25 12:32:38.381
137.0, 116790.25641563612, 187500.0, 152127.8503093541, 136945.15966715332, 60238.577155897285, 112306.02709126796, 119728.39322428624, 124654.2259638579, -0.232, 0.854, 0.456, 192.0, 0.0, 0.0, 0.0, 0.0, 0.0, 0.0, 0.0, 0.0, 0.0, 1.7272855583840635E9, 0.0, 2024-09-25 12:32:38.384
138.0, 116779.2146538752, 187500.0, 152085.0020152333, 136930.49692279065, 60215.0631207303, 112297.80164930841, 119722.64882596122, 124651.74492022335, -0.232, 0.854, 0.456, 192.0, 0.0, 0.0, 0.0, 0.0, 0.0, 0.0, 0.0, 0.0, 0.0, 1.727285558394061E9, 0.0, 2024-09-25 12:32:38.394
139.0, 116786.18839814526, 187500.0, 152092.78042230374, 136925.44542854375, 60217.07477773128, 112288.86095152628, 119711.56236071138, 124651.83432720117, -0.232, 0.854, 0.456, 192.0, 0.0, 0.0, 0.0, 0.0, 0.0, 0.0, 0.0, 0.0, 0.0, 1.727285558398094E9, 0.0, 2024-09-25 12:32:38.398
140.0, 116801.49934309714, 187500.0, 152136.2098617804, 136937.9624054387, 60242.04167628785, 112292.34782366132, 119721.75475618301, 124649.91207717801, -0.232, 0.854, 0.456, 192.0, 0.0, 0.0, 0.0, 0.0, 0.0, 0.0, 0.0, 0.0, 0.0, 1.7272855584010625E9, 0.0, 2024-09-25 12:32:38.401
141.0, 116789.04942143553, 187500.0, 152131.67245765598, 136937.6718327608, 60241.1699582541, 112292.59369285032, 119729.1084801088, 124646.04522538725, -0.23600000000000002, 0.86, 0.462, 192.0, 248.0, 160.0, 26.0, 224.0, 14.0, 112.0, 0.0, 0.0, 0.0, 1.7272855584060867E9, 0.0, 2024-09-25 12:32:38.406
142.0, 116779.6169852754, 187500.0, 152093.38391940403, 136930.563978024, 60217.49946087593, 112290.22440793806, 119727.4097475302, 124643.85475443063, -0.23600000000000002, 0.86, 0.462, 192.0, 0.0, 0.0, 0.0, 0.0, 0.0, 0.0, 0.0, 0.0, 0.0, 1.7272855584101262E9, 0.0, 2024-09-25 12:32:38.410
143.0, 116798.68302329577, 187500.0, 152095.30616942717, 136935.7719344821, 60221.18749871106, 112291.006718994, 119727.67796846366, 124639.78673693977, -0.23600000000000002, 0.86, 0.462, 192.0, 0.0, 0.0, 0.0, 0.0, 0.0, 0.0, 0.0, 0.0, 0.0, 1.7272855584131165E9, 0.0, 2024-09-25 12:32:38.413
144.0, 116802.97455823119, 187500.0, 152140.411989738, 136948.11009742142, 60250.043600802856, 112298.94158827563, 119726.31451205189, 124651.58845801216, -0.23600000000000002, 0.86, 0.462, 192.0, 0.0, 0.0, 0.0, 0.0, 0.0, 0.0, 0.0, 0.0, 0.0, 1.7272855584171157E9, 0.0, 2024-09-25 12:32:38.417
145.0, 116791.53046507007, 187500.0, 152140.43434148244, 136949.8311817445, 60248.21075775752, 112299.76860282048, 119730.82956443186, 124648.9733039109, -0.23600000000000002, 0.86, 0.462, 192.0, 0.0, 0.0, 0.0, 0.0, 0.0, 0.0, 0.0, 0.0, 0.0, 1.7272855584201343E9, 0.0, 2024-09-25 12:32:38.420
146.0, 116783.30502311052, 187500.0, 152097.83191655064, 136939.43762057277, 60223.15445222312, 112293.13013471726, 119730.71780570959, 124634.95876013742, -0.23600000000000002, 0.86, 0.462, 192.0, 0.0, 0.0, 0.0, 0.0, 0.0, 0.0, 0.0, 0.0, 0.0, 1.727285558423136E9, 0.0, 2024-09-25 12:32:38.423
147.0, 116788.78120050207, 187500.0, 152083.57150358814, 136929.89342569036, 60218.57234460978, 112285.46348636907, 119725.48749750704, 124629.86256240161, -0.23600000000000002, 0.86, 0.462, 192.0, 0.0, 0.0, 0.0, 0.0, 0.0, 0.0, 0.0, 0.0, 0.0, 1.7272855584261143E9, 0.0, 2024-09-25 12:32:38.426
148.0, 116808.4730873672, 187500.0, 152126.33039073116, 136943.1703618968, 60246.959060068024, 112289.84442828232, 119726.8062504299, 124637.05982411622, -0.23600000000000002, 0.86, 0.462, 192.0, 0.0, 0.0, 0.0, 0.0, 0.0, 0.0, 0.0, 0.0, 0.0, 1.727285558430163E9, 0.0, 2024-09-25 12:32:38.430
149.0, 116803.08631695347, 187500.0, 152147.63160319705, 136954.18977191328, 60255.78799912787, 112301.5567423769, 119732.55064875491, 124648.88389693307, -0.23600000000000002, 0.86, 0.462, 192.0, 0.0, 0.0, 0.0, 0.0, 0.0, 0.0, 0.0, 0.0, 0.0, 1.7272855584331603E9, 0.0, 2024-09-25 12:32:38.433
150.0, 116784.24379637765, 187500.0, 152108.18077423345, 136945.7631642536, 60231.11167324921, 112296.95228301911, 119732.68475922165, 124643.20655384143, -0.23600000000000002, 0.86, 0.462, 192.0, 0.0, 0.0, 0.0, 0.0, 0.0, 0.0, 0.0, 0.0, 0.0, 1.727285558436168E9, 0.0, 2024-09-25 12:32:38.436
151.0, 116791.17283715878, 187500.0, 152086.03019547823, 136942.99154794117, 60220.114614977196, 112290.24675968252, 119737.15510811271, 124631.89657114704, -0.23600000000000002, 0.86, 0.462, 192.0, 0.0, 0.0, 0.0, 0.0, 0.0, 0.0, 0.0, 0.0, 0.0, 1.7272855584401665E9, 0.0, 2024-09-25 12:32:38.440
152.0, 116798.19128491776, 187500.0, 152125.72689363087, 136948.825353244, 60244.7685891114, 112292.01254749448, 119730.71780570959, 124643.36301605261, -0.23600000000000002, 0.846, 0.458, 192.0, 248.0, 160.0, 26.0, 112.0, 14.0, 80.0, 0.0, 0.0, 0.0, 1.7272855584431643E9, 0.0, 2024-09-25 12:32:38.443
153.0, 116793.05038369303, 187500.0, 152152.4148765105, 136950.3229201225, 60254.91628109411, 112297.06404174138, 119730.31547430939, 124650.96260916741, -0.23600000000000002, 0.846, 0.458, 192.0, 0.0, 0.0, 0.0, 0.0, 0.0, 0.0, 0.0, 0.0, 0.0, 1.727285558446158E9, 0.0, 2024-09-25 12:32:38.446
154.0, 116783.19326438825, 187500.0, 152121.12243427307, 136941.9633676962, 60231.49165290495, 112295.18649520713, 119731.70128246561, 124645.46408003141, -0.23600000000000002, 0.846, 0.458, 192.0, 0.0, 0.0, 0.0, 0.0, 0.0, 0.0, 0.0, 0.0, 0.0, 1.7272855584501932E9, 0.0, 2024-09-25 12:32:38.450
155.0, 116783.70735451071, 187500.0, 152089.51706761325, 136932.1733036248, 60215.86778353069, 112288.43626838163, 119730.3601777983, 124639.67497821749, -0.23600000000000002, 0.846, 0.458, 192.0, 0.0, 0.0, 0.0, 0.0, 0.0, 0.0, 0.0, 0.0, 0.0, 1.7272855584531696E9, 0.0, 2024-09-25 12:32:38.453
156.0, 116801.27582565258, 187500.0, 152118.7978528497, 136940.93518745128, 60241.21466174301, 112292.83956203933, 119741.35723607031, 124643.5641817527, -0.23600000000000002, 0.846, 0.458, 192.0, 0.0, 0.0, 0.0, 0.0, 0.0, 0.0, 0.0, 0.0, 0.0, 1.72728555845622E9, 0.0, 2024-09-25 12:32:38.456
157.0, 116794.74911627163, 187500.0, 152155.67823120096, 136948.579484055, 60260.660679419125, 112302.78608832194, 119740.016131403, 124662.51846105081, -0.23600000000000002, 0.846, 0.458, 192.0, 0.0, 0.0, 0.0, 0.0, 0.0, 0.0, 0.0, 0.0, 0.0, 1.7272855584601624E9, 0.0, 2024-09-25 12:32:38.460
158.0, 116783.14856089934, 187500.0, 152130.86779485559, 136944.0197281861, 60242.17578675459, 112302.98725402204, 119743.90533493822, 124659.25510636033, -0.23600000000000002, 0.846, 0.458, 192.0, 0.0, 0.0, 0.0, 0.0, 0.0, 0.0, 0.0, 0.0, 0.0, 1.7272855584631624E9, 0.0, 2024-09-25 12:32:38.463
159.0, 116781.44982832074, 187500.0, 152087.86303852356, 136934.34142283697, 60220.606353355215, 112291.90078877221, 119742.07249189288, 124645.59819049815, -0.23600000000000002, 0.846, 0.458, 192.0, 0.0, 0.0, 0.0, 0.0, 0.0, 0.0, 0.0, 0.0, 0.0, 1.7272855584661899E9, 0.0, 2024-09-25 12:32:38.466
160.0, 116800.85114250793, 187500.0, 152107.04083526623, 136941.069297918, 60236.67725761858, 112295.78999230743, 119741.73721572605, 124645.91111492051, -0.23600000000000002, 0.846, 0.458, 192.0, 0.0, 0.0, 0.0, 0.0, 0.0, 0.0, 0.0, 0.0, 0.0, 1.7272855584692123E9, 0.0, 2024-09-25 12:32:38.469
161.0, 116811.80349729104, 187500.0, 152146.29049852974, 136952.6698532903, 60256.190330528065, 112303.12136448878, 119739.54674476944, 124649.06271088871, -0.23600000000000002, 0.846, 0.458, 192.0, 0.0, 0.0, 0.0, 0.0, 0.0, 0.0, 0.0, 0.0, 0.0, 1.7272855584731903E9, 0.0, 2024-09-25 12:32:38.473
162.0, 116796.33609012797, 187500.0, 152142.49070197233, 136961.61055107243, 60252.63640315967, 112314.87838207226, 119742.83245120436, 124662.92079245101, -0.242, 0.85, 0.47200000000000003, 192.0, 248.0, 112.0, 26.0, 144.0, 14.0, 192.0, 0.0, 0.0, 0.0, 1.7272855584761927E9, 0.0, 2024-09-25 12:32:38.476
163.0, 116785.0708109225, 187500.0, 152096.42375664995, 136953.11688817941, 60226.39545516914, 112306.07179475688, 119741.93838142615, 124649.33093182219, -0.242, 0.85, 0.47200000000000003, 192.0, 0.0, 0.0, 0.0, 0.0, 0.0, 0.0, 0.0, 0.0, 0.0, 1.7272855584792657E9, 0.0, 2024-09-25 12:32:38.479
164.0, 116797.36427037291, 187500.0, 152102.92811428645, 136955.30735913603, 60237.01253378541, 112304.03778601144, 119744.39707331623, 124653.5777632687, -0.242, 0.85, 0.47200000000000003, 192.0, 0.0, 0.0, 0.0, 0.0, 0.0, 0.0, 0.0, 0.0, 0.0, 1.7272855584822068E9, 0.0, 2024-09-25 12:32:38.482
165.0, 116807.13198269988, 187500.0, 152152.30311778822, 136965.45505111874, 60267.34385101126, 112314.58780939435, 119742.9665616711, 124670.83330998819, -0.242, 0.85, 0.47200000000000003, 192.0, 0.0, 0.0, 0.0, 0.0, 0.0, 0.0, 0.0, 0.0, 0.0, 1.7272855584872904E9, 0.0, 2024-09-25 12:32:38.487
166.0, 116794.45854359372, 187500.0, 152158.67336495797, 136967.86903951992, 60263.11937130921, 112324.93666707716, 119740.84314594785, 124684.7807985283, -0.242, 0.85, 0.47200000000000003, 192.0, 0.0, 0.0, 0.0, 0.0, 0.0, 0.0, 0.0, 0.0, 0.0, 1.7272855584912963E9, 0.0, 2024-09-25 12:32:38.491
167.0, 116788.49062782415, 187500.0, 152110.1030242566, 136954.01095795762, 60229.94938253753, 112313.29140821594, 119744.91116343871, 124665.53594655228, -0.242, 0.85, 0.47200000000000003, 192.0, 0.0, 0.0, 0.0, 0.0, 0.0, 0.0, 0.0, 0.0, 0.0, 1.7272855584942627E9, 0.0, 2024-09-25 12:32:38.494
168.0, 116804.24860766514, 187500.0, 152109.4995271563, 136953.45216434624, 60233.30214420583, 112312.53144890445, 119748.19686987363, 124659.94801043846, -0.242, 0.85, 0.47200000000000003, 192.0, 0.0, 0.0, 0.0, 0.0, 0.0, 0.0, 0.0, 0.0, 0.0, 1.7272855585003386E9, 0.0, 2024-09-25 12:32:38.500
169.0, 116812.94343625825, 187500.0, 152155.47706550086, 136965.36564414093, 60263.23113003148, 112320.93570481965, 119757.5175473115, 124664.46306281842, -0.242, 0.85, 0.47200000000000003, 192.0, 0.0, 0.0, 0.0, 0.0, 0.0, 0.0, 0.0, 0.0, 0.0, 1.7272855585032277E9, 0.0, 2024-09-25 12:32:38.503
170.0, 116802.88515125337, 187500.0, 152166.40706853953, 136968.4278331313, 60266.38272599968, 112325.87544034427, 119758.47867232308, 124666.13944365257, -0.242, 0.85, 0.47200000000000003, 192.0, 0.0, 0.0, 0.0, 0.0, 0.0, 0.0, 0.0, 0.0, 0.0, 1.727285558507354E9, 0.0, 2024-09-25 12:32:38.507
171.0, 116790.90461622532, 187500.0, 152127.62679190957, 136952.2228184012, 60240.92408906509, 112319.8628210858, 119748.6662565072, 124666.60883028613, -0.242, 0.85, 0.47200000000000003, 192.0, 0.0, 0.0, 0.0, 0.0, 0.0, 0.0, 0.0, 0.0, 0.0, 1.727285558510334E9, 0.0, 2024-09-25 12:32:38.510
172.0, 116805.1650291878, 187500.0, 152108.76191958928, 136944.2208938862, 60228.9659057815, 112311.41386168169, 119745.58171577236, 124652.50487953484, -0.242, 0.84, 0.468, 192.0, 248.0, 112.0, 26.0, 64.0, 14.0, 160.0, 0.0, 0.0, 0.0, 1.7272855585142865E9, 0.0, 2024-09-25 12:32:38.514
173.0, 116816.65382583784, 187500.0, 152147.89982413052, 136954.81562075802, 60253.798693871344, 112312.84437332684, 119752.57781178688, 124646.64872248755, -0.242, 0.84, 0.468, 192.0, 0.0, 0.0, 0.0, 0.0, 0.0, 0.0, 0.0, 0.0, 0.0, 1.7272855585192611E9, 0.0, 2024-09-25 12:32:38.519
174.0, 116810.75296530164, 187500.0, 152167.167027851, 136966.21501043023, 60262.31470850882, 112319.30402747441, 119756.84699497784, 124643.13949860806, -0.242, 0.84, 0.468, 192.0, 0.0, 0.0, 0.0, 0.0, 0.0, 0.0, 0.0, 0.0, 0.0, 1.727285558523314E9, 0.0, 2024-09-25 12:32:38.523
175.0, 116785.45079057822, 187500.0, 152133.2147280234, 136956.11202193642, 60239.09124601976, 112318.02997804046, 119748.30862859591, 124652.5272312793, -0.242, 0.84, 0.468, 192.0, 0.0, 0.0, 0.0, 0.0, 0.0, 0.0, 0.0, 0.0, 0.0, 1.7272855585262802E9, 0.0, 2024-09-25 12:32:38.526
176.0, 116795.53142732757, 187500.0, 152100.04473925172, 136946.63488228738, 60221.90275453362, 112305.49064940104, 119753.87421296528, 124634.22115257039, -0.242, 0.84, 0.468, 192.0, 0.0, 0.0, 0.0, 0.0, 0.0, 0.0, 0.0, 0.0, 0.0, 1.7272855585302997E9, 0.0, 2024-09-25 12:32:38.530
177.0, 116809.3224536565, 187500.0, 152141.14959730502, 136959.21891441572, 60253.396362471154, 112316.3088937174, 119757.78576824497, 124648.66037948852, -0.242, 0.84, 0.468, 192.0, 0.0, 0.0, 0.0, 0.0, 0.0, 0.0, 0.0, 0.0, 0.0, 1.7272855585332873E9, 0.0, 2024-09-25 12:32:38.533
178.0, 116796.71606978371, 187500.0, 152175.79480121075, 136964.29276040706, 60271.23305454649, 112329.22820201257, 119749.56032628541, 124672.28617337778, -0.242, 0.84, 0.468, 192.0, 0.0, 0.0, 0.0, 0.0, 0.0, 0.0, 0.0, 0.0, 0.0, 1.7272855585383043E9, 0.0, 2024-09-25 12:32:38.538
179.0, 116787.84242723495, 187500.0, 152131.2477745113, 136948.3783183549, 60240.43235068707, 112316.17478325067, 119749.3144570964, 124651.18612661197, -0.242, 0.84, 0.468, 192.0, 0.0, 0.0, 0.0, 0.0, 0.0, 0.0, 0.0, 0.0, 0.0, 1.7272855585423384E9, 0.0, 2024-09-25 12:32:38.542
180.0, 116794.61500580491, 187500.0, 152093.8533060376, 136939.70584150622, 60223.42267315659, 112306.69764360163, 119752.44370132014, 124634.06469035921, -0.242, 0.84, 0.468, 192.0, 0.0, 0.0, 0.0, 0.0, 0.0, 0.0, 0.0, 0.0, 0.0, 1.7272855585463612E9, 0.0, 2024-09-25 12:32:38.546
181.0, 116809.99300599015, 187500.0, 152123.6034779076, 136953.13923992388, 60245.86382458971, 112311.41386168169, 119757.38343684477, 124636.85865841612, -0.242, 0.84, 0.468, 192.0, 0.0, 0.0, 0.0, 0.0, 0.0, 0.0, 0.0, 0.0, 0.0, 1.7272855585503585E9, 0.0, 2024-09-25 12:32:38.550
182.0, 116805.70147105474, 187500.0, 152158.98628938035, 136963.64455981785, 60265.93569111058, 112321.60625715331, 119761.9208409692, 124639.80908868423, -0.23600000000000002, 0.836, 0.47000000000000003, 192.0, 248.0, 160.0, 26.0, 32.0, 14.0, 176.0, 0.0, 0.0, 0.0, 1.7272855585543091E9, 0.0, 2024-09-25 12:32:38.554
183.0, 116791.35165111443, 187500.0, 152137.77448389228, 136959.01774871562, 60254.245728760456, 112324.15435602122, 119762.23376539157, 124639.29499856175, -0.23600000000000002, 0.836, 0.47000000000000003, 192.0, 0.0, 0.0, 0.0, 0.0, 0.0, 0.0, 0.0, 0.0, 0.0, 1.7272855585594265E9, 0.0, 2024-09-25 12:32:38.559
184.0, 116787.06011617901, 187500.0, 152102.36932067506, 136948.1771526548, 60236.92312680759, 112321.04746354192, 119756.44466357764, 124646.80518469874, -0.23600000000000002, 0.836, 0.47000000000000003, 192.0, 0.0, 0.0, 0.0, 0.0, 0.0, 0.0, 0.0, 0.0, 0.0, 1.7272855585623927E9, 0.0, 2024-09-25 12:32:38.562
185.0, 116793.18449415977, 187500.0, 152125.36926571958, 136950.7252515227, 60254.29043224936, 112323.6626176432, 119755.26002112152, 124666.29590586376, -0.23600000000000002, 0.836, 0.47000000000000003, 192.0, 0.0, 0.0, 0.0, 0.0, 0.0, 0.0, 0.0, 0.0, 0.0, 1.7272855585653827E9, 0.0, 2024-09-25 12:32:38.565
186.0, 116792.9162732263, 187500.0, 152159.63448996955, 136955.15089692484, 60269.333156267785, 112318.99110305205, 119757.7634165005, 124660.39504532756, -0.23600000000000002, 0.836, 0.47000000000000003, 192.0, 0.0, 0.0, 0.0, 0.0, 0.0, 0.0, 0.0, 0.0, 0.0, 1.727285558572406E9, 0.0, 2024-09-25 12:32:38.572
187.0, 116788.55768305752, 187500.0, 152141.7530944053, 136948.15480091033, 60253.99985957144, 112311.03388202595, 119756.31055311092, 124646.2687428318, -0.23600000000000002, 0.836, 0.47000000000000003, 192.0, 0.0, 0.0, 0.0, 0.0, 0.0, 0.0, 0.0, 0.0, 0.0, 1.7272855585774076E9, 0.0, 2024-09-25 12:32:38.577
188.0, 116788.53533131306, 187500.0, 152101.22938170785, 136939.6611380173, 60234.73265585097, 112306.56353313489, 119756.15409089973, 124642.55835325223, -0.23600000000000002, 0.836, 0.47000000000000003, 192.0, 0.0, 0.0, 0.0, 0.0, 0.0, 0.0, 0.0, 0.0, 0.0, 1.72728555858142E9, 0.0, 2024-09-25 12:32:38.581
189.0, 116803.0192617201, 187500.0, 152114.9533528034, 136953.7203852797, 60248.59073741326, 112314.27488497196, 119767.6205358053, 124642.73716720786, -0.23600000000000002, 0.836, 0.47000000000000003, 192.0, 0.0, 0.0, 0.0, 0.0, 0.0, 0.0, 0.0, 0.0, 0.0, 1.7272855585843897E9, 0.0, 2024-09-25 12:32:38.584
190.0, 116804.53918034307, 187500.0, 152159.72389694737, 136968.45018487575, 60274.47405749251, 112322.67914088716, 119768.04521894995, 124652.08019639019, -0.23600000000000002, 0.836, 0.47000000000000003, 192.0, 0.0, 0.0, 0.0, 0.0, 0.0, 0.0, 0.0, 0.0, 0.0, 1.7272855585874531E9, 0.0, 2024-09-25 12:32:38.587
191.0, 116795.97846221668, 187500.0, 152150.62673695406, 136964.06924296252, 60265.30984226583, 112317.64999838472, 119762.83726249186, 124639.54086775075, -0.23600000000000002, 0.836, 0.47000000000000003, 192.0, 0.0, 0.0, 0.0, 0.0, 0.0, 0.0, 0.0, 0.0, 0.0, 1.7272855585904653E9, 0.0, 2024-09-25 12:32:38.590
192.0, 116787.84242723495, 187500.0, 152113.88046906955, 136956.08967019198, 60245.39443795615, 112319.16991700768, 119761.45145433563, 124640.79256544025, -0.23600000000000002, 0.836, 0.47000000000000003, 192.0, 0.0, 0.0, 0.0, 0.0, 0.0, 0.0, 0.0, 0.0, 0.0, 1.727285558594519E9, 0.0, 2024-09-25 12:32:38.594
193.0, 116793.38565985986, 187500.0, 152108.404291678, 136953.98860621318, 60243.807464099824, 112316.37594895076, 119762.12200666929, 124637.08217586068, -0.23800000000000002, 0.836, 0.468, 192.0, 248.0, 144.0, 26.0, 32.0, 14.0, 160.0, 0.0, 0.0, 0.0, 1.7272855585984144E9, 0.0, 2024-09-25 12:32:38.598
194.0, 116803.15337218683, 187500.0, 152153.80068466673, 136964.8739057629, 60271.993013857966, 112322.72384437607, 119764.29012588145, 124643.02773988579, -0.23800000000000002, 0.836, 0.468, 192.0, 0.0, 0.0, 0.0, 0.0, 0.0, 0.0, 0.0, 0.0, 0.0, 1.7272855586034744E9, 0.0, 2024-09-25 12:32:38.603
195.0, 116794.70441278272, 187500.0, 152169.87158893008, 136970.57360059902, 60277.446839505064, 112330.09992004633, 119760.84795723534, 124658.6739610045, -0.23800000000000002, 0.836, 0.468, 192.0, 0.0, 0.0, 0.0, 0.0, 0.0, 0.0, 0.0, 0.0, 0.0, 1.7272855586074712E9, 0.0, 2024-09-25 12:32:38.607
196.0, 116792.15631391482, 187500.0, 152135.02521932428, 136960.11298419393, 60254.78217062738, 112334.14558579274, 119764.82656774839, 124668.19580414247, -0.23800000000000002, 0.836, 0.468, 192.0, 0.0, 0.0, 0.0, 0.0, 0.0, 0.0, 0.0, 0.0, 0.0, 1.727285558611506E9, 0.0, 2024-09-25 12:32:38.611
197.0, 116812.89873276935, 187500.0, 152117.3449894601, 136960.6270743164, 60250.91531883661, 112330.99398982454, 119776.00243997604, 124655.3211993362, -0.23800000000000002, 0.836, 0.468, 192.0, 0.0, 0.0, 0.0, 0.0, 0.0, 0.0, 0.0, 0.0, 0.0, 1.7272855586144624E9, 0.0, 2024-09-25 12:32:38.614
198.0, 116817.10086072695, 187500.0, 152166.60823423963, 136981.34714142646, 60287.77334544341, 112349.54593772245, 119786.53011161448, 124673.24729838935, -0.23800000000000002, 0.836, 0.468, 192.0, 0.0, 0.0, 0.0, 0.0, 0.0, 0.0, 0.0, 0.0, 0.0, 1.7272855586195233E9, 0.0, 2024-09-25 12:32:38.619
199.0, 116811.20000019074, 187500.0, 152185.83073447118, 136985.45986240625, 60295.9317321696, 112355.40209476973, 119785.81485579192, 124681.182167671, -0.23800000000000002, 0.836, 0.468, 192.0, 0.0, 0.0, 0.0, 0.0, 0.0, 0.0, 0.0, 0.0, 0.0, 1.727285558622518E9, 0.0, 2024-09-25 12:32:38.622
200.0, 116808.09310771145, 187500.0, 152160.8191324257, 136985.88454555089, 60280.665490706626, 112362.84522567336, 119790.06168723843, 124692.3356881542, -0.23800000000000002, 0.836, 0.468, 192.0, 0.0, 0.0, 0.0, 0.0, 0.0, 0.0, 0.0, 0.0, 0.0, 1.7272855586254573E9, 0.0, 2024-09-25 12:32:38.625
201.0, 116814.86568628141, 187500.0, 152139.5179199598, 136985.05753100605, 60270.56250221283, 112363.09109486236, 119792.90035878425, 124695.95667075596, -0.23800000000000002, 0.836, 0.468, 192.0, 0.0, 0.0, 0.0, 0.0, 0.0, 0.0, 0.0, 0.0, 0.0, 1.7272855586304672E9, 0.0, 2024-09-25 12:32:38.630
202.0, 116826.64505560936, 187500.0, 152166.96586215092, 136987.69503685177, 60285.29230180888, 112356.7208476926, 119783.46792262411, 124689.98875498638, -0.23800000000000002, 0.836, 0.468, 192.0, 0.0, 0.0, 0.0, 0.0, 0.0, 0.0, 0.0, 0.0, 0.0, 1.7272855586345167E9, 0.0, 2024-09-25 12:32:38.634
203.0, 116819.69366308376, 187500.0, 152191.9774641964, 136985.97395252873, 60294.45651703555, 112354.28450754697, 119775.04131496446, 124686.6359933181, -0.246, 0.8320000000000001, 0.47600000000000003, 192.0, 248.0, 80.0, 26.0, 0.0, 14.0, 224.0, 0.0, 0.0, 0.0, 1.72728555863846E9, 0.0, 2024-09-25 12:32:38.638
204.0, 116803.08631695347, 187500.0, 152152.83955965514, 136967.86903951992, 60268.55084521185, 112337.67716141668, 119773.78961727496, 124664.64187677407, -0.246, 0.8320000000000001, 0.47600000000000003, 192.0, 0.0, 0.0, 0.0, 0.0, 0.0, 0.0, 0.0, 0.0, 0.0, 1.727285558641524E9, 0.0, 2024-09-25 12:32:38.641
205.0, 116798.05717445102, 187500.0, 152110.52770740126, 136950.90406547833, 60248.233109501976, 112325.02607405497, 119767.57583231639, 124651.61080975662, -0.246, 0.8320000000000001, 0.47600000000000003, 192.0, 0.0, 0.0, 0.0, 0.0, 0.0, 0.0, 0.0, 0.0, 0.0, 1.7272855586455324E9, 0.0, 2024-09-25 12:32:38.645
206.0, 116807.64607282235, 187500.0, 152133.08061755667, 136952.6698532903, 60268.64025218967, 112325.74132987755, 119767.88875673876, 124655.0753301472, -0.246, 0.8320000000000001, 0.47600000000000003, 192.0, 0.0, 0.0, 0.0, 0.0, 0.0, 0.0, 0.0, 0.0, 0.0, 1.7272855586495793E9, 0.0, 2024-09-25 12:32:38.649
207.0, 116806.05909896603, 187500.0, 152166.1164958616, 136960.29179814958, 60286.14166809818, 112328.98233282357, 119772.00147771854, 124656.43878655897, -0.246, 0.8320000000000001, 0.47600000000000003, 192.0, 0.0, 0.0, 0.0, 0.0, 0.0, 0.0, 0.0, 0.0, 0.0, 1.7272855586545188E9, 0.0, 2024-09-25 12:32:38.654
208.0, 116795.59848256093, 187500.0, 152149.2632805423, 136961.56584758352, 60273.512932480924, 112335.12906254877, 119776.53888184296, 124660.46210056092, -0.246, 0.8320000000000001, 0.47600000000000003, 192.0, 0.0, 0.0, 0.0, 0.0, 0.0, 0.0, 0.0, 0.0, 0.0, 1.727285558658597E9, 0.0, 2024-09-25 12:32:38.658
209.0, 116792.4692383372, 187500.0, 152119.02137029427, 136958.4813068487, 60258.60431892924, 112336.87249861629, 119783.91495751322, 124662.29494360626, -0.246, 0.8320000000000001, 0.47600000000000003, 192.0, 0.0, 0.0, 0.0, 0.0, 0.0, 0.0, 0.0, 0.0, 0.0, 1.7272855586625507E9, 0.0, 2024-09-25 12:32:38.662
210.0, 116800.35940412992, 187500.0, 152134.2652600128, 136962.37051038392, 60272.21653130252, 112335.95607709362, 119787.53594011498, 124664.46306281842, -0.246, 0.8320000000000001, 0.47600000000000003, 192.0, 0.0, 0.0, 0.0, 0.0, 0.0, 0.0, 0.0, 0.0, 0.0, 1.7272855586665132E9, 0.0, 2024-09-25 12:32:38.666
211.0, 116807.17668618879, 187500.0, 152173.09024013166, 136970.97593199922, 60294.38946180219, 112338.99591433954, 119783.87025402431, 124672.06265593323, -0.246, 0.8320000000000001, 0.47600000000000003, 192.0, 0.0, 0.0, 0.0, 0.0, 0.0, 0.0, 0.0, 0.0, 0.0, 1.7272855586705685E9, 0.0, 2024-09-25 12:32:38.670
212.0, 116801.63345356387, 187500.0, 152160.28269055876, 136968.27137092012, 60278.94440638357, 112336.73838814955, 119778.79640803295, 124673.20259490045, -0.246, 0.8320000000000001, 0.47600000000000003, 192.0, 0.0, 0.0, 0.0, 0.0, 0.0, 0.0, 0.0, 0.0, 0.0, 1.7272855586765926E9, 0.0, 2024-09-25 12:32:38.676
213.0, 116795.17379941628, 187500.0, 152118.8425563386, 136956.89433299238, 60254.223377015995, 112333.05035031443, 119772.31440214091, 124671.05682743274, -0.25, 0.8260000000000001, 0.47200000000000003, 192.0, 248.0, 48.0, 25.0, 208.0, 14.0, 192.0, 0.0, 0.0, 0.0, 1.7272855586805327E9, 0.0, 2024-09-25 12:32:38.680
214.0, 116808.24956992264, 187500.0, 152127.67149539848, 136964.5386295961, 60263.11937130921, 112338.10184456133, 119774.23665216407, 124678.25408914735, -0.25, 0.8260000000000001, 0.47200000000000003, 192.0, 0.0, 0.0, 0.0, 0.0, 0.0, 0.0, 0.0, 0.0, 0.0, 1.727285558683551E9, 0.0, 2024-09-25 12:32:38.683
215.0, 116812.54110485806, 187500.0, 152170.54214126375, 136980.16249897034, 60288.95798789954, 112347.64603944375, 119775.48834985356, 124685.31724039522, -0.25, 0.8260000000000001, 0.47200000000000003, 192.0, 0.0, 0.0, 0.0, 0.0, 0.0, 0.0, 0.0, 0.0, 0.0, 1.727285558687575E9, 0.0, 2024-09-25 12:32:38.687
216.0, 116804.0697937095, 187500.0, 152162.60727198212, 136976.56386811304, 60277.8268191608, 112341.52166146299, 119774.92955624218, 124673.40376060054, -0.25, 0.8260000000000001, 0.47200000000000003, 192.0, 0.0, 0.0, 0.0, 0.0, 0.0, 0.0, 0.0, 0.0, 0.0, 1.7272855586916072E9, 0.0, 2024-09-25 12:32:38.691
217.0, 116795.19615116074, 187500.0, 152115.8474225816, 136964.85155401845, 60249.64126940266, 112331.32926599137, 119779.69047781116, 124653.84598420215, -0.25, 0.8260000000000001, 0.47200000000000003, 192.0, 0.0, 0.0, 0.0, 0.0, 0.0, 0.0, 0.0, 0.0, 0.0, 1.7272855586945648E9, 0.0, 2024-09-25 12:32:38.694
218.0, 116805.20973267673, 187500.0, 152111.98057079085, 136964.51627785162, 60256.23503401697, 112331.70924564711, 119783.91495751322, 124652.28136209029, -0.25, 0.8260000000000001, 0.47200000000000003, 192.0, 0.0, 0.0, 0.0, 0.0, 0.0, 0.0, 0.0, 0.0, 0.0, 1.7272855586986115E9, 0.0, 2024-09-25 12:32:38.698
219.0, 116814.68687232576, 187500.0, 152149.6656119425, 136969.61247558743, 60281.000766873454, 112332.46920495859, 119783.40086739074, 124654.78475746927, -0.25, 0.8260000000000001, 0.47200000000000003, 192.0, 0.0, 0.0, 0.0, 0.0, 0.0, 0.0, 0.0, 0.0, 0.0, 1.7272855587016768E9, 0.0, 2024-09-25 12:32:38.701
220.0, 116807.78018328908, 187500.0, 152163.70250746043, 136975.62509484592, 60286.186371587086, 112339.33119050637, 119788.273547682, 124657.77989122628, -0.25, 0.8260000000000001, 0.47200000000000003, 192.0, 0.0, 0.0, 0.0, 0.0, 0.0, 0.0, 0.0, 0.0, 0.0, 1.7272855587056136E9, 0.0, 2024-09-25 12:32:38.705
221.0, 116803.62275882039, 187500.0, 152130.5101669443, 136968.3831296424, 60263.40994398713, 112339.73352190657, 119780.74100980056, 124657.06463540372, -0.25, 0.8260000000000001, 0.47200000000000003, 192.0, 0.0, 0.0, 0.0, 0.0, 0.0, 0.0, 0.0, 0.0, 0.0, 1.727285558709636E9, 0.0, 2024-09-25 12:32:38.709
222.0, 116809.7247850567, 187500.0, 152113.7016551139, 136960.80588827204, 60255.631536916684, 112333.63149567027, 119774.75074228655, 124654.8741644471, -0.25, 0.8260000000000001, 0.47200000000000003, 192.0, 0.0, 0.0, 0.0, 0.0, 0.0, 0.0, 0.0, 0.0, 0.0, 1.7272855587146094E9, 0.0, 2024-09-25 12:32:38.714
223.0, 116818.1737444608, 187500.0, 152150.3585160206, 136966.77380404162, 60278.31855753882, 112338.05714107242, 119775.77892253149, 124659.90330694953, -0.254, 0.8260000000000001, 0.47800000000000004, 192.0, 248.0, 16.0, 25.0, 208.0, 14.0, 240.0, 0.0, 0.0, 0.0, 1.727285558718649E9, 0.0, 2024-09-25 12:32:38.718
224.0, 116815.55859035953, 187500.0, 152169.08927787415, 136978.10613848045, 60288.488601265984, 112348.42835049969, 119786.30659416993, 124655.99175166986, -0.254, 0.8260000000000001, 0.47800000000000004, 192.0, 0.0, 0.0, 0.0, 0.0, 0.0, 0.0, 0.0, 0.0, 0.0, 1.7272855587216775E9, 0.0, 2024-09-25 12:32:38.721
225.0, 116797.09604943944, 187500.0, 152135.58401293564, 136969.41130988733, 60265.89098762167, 112346.39434175425, 119781.74683830106, 124654.36007432462, -0.254, 0.8260000000000001, 0.47800000000000004, 192.0, 0.0, 0.0, 0.0, 0.0, 0.0, 0.0, 0.0, 0.0, 0.0, 1.727285558725648E9, 0.0, 2024-09-25 12:32:38.725
226.0, 116804.2709594096, 187500.0, 152098.21189620637, 136954.54739982454, 60246.64613564565, 112330.50225144652, 119779.73518130007, 124629.54963797923, -0.254, 0.8260000000000001, 0.47800000000000004, 192.0, 0.0, 0.0, 0.0, 0.0, 0.0, 0.0, 0.0, 0.0, 0.0, 1.7272855587306774E9, 0.0, 2024-09-25 12:32:38.730
227.0, 116819.44779389475, 187500.0, 152131.49364370032, 136965.8797342634, 60274.33994702577, 112333.85501311482, 119783.66908832421, 124627.20270481143, -0.254, 0.8260000000000001, 0.47800000000000004, 192.0, 0.0, 0.0, 0.0, 0.0, 0.0, 0.0, 0.0, 0.0, 0.0, 1.727285558734632E9, 0.0, 2024-09-25 12:32:38.734
228.0, 116807.37785188889, 187500.0, 152177.44883030045, 136978.03908324707, 60298.412775804136, 112350.6188214563, 119780.31632665591, 124657.04228365926, -0.254, 0.8260000000000001, 0.47800000000000004, 192.0, 0.0, 0.0, 0.0, 0.0, 0.0, 0.0, 0.0, 0.0, 0.0, 1.7272855587376833E9, 0.0, 2024-09-25 12:32:38.737
229.0, 116795.57613081648, 187500.0, 152150.62673695406, 136971.06533897703, 60274.13878132567, 112348.7189231776, 119780.40573363373, 124655.16473712501, -0.254, 0.8260000000000001, 0.47800000000000004, 192.0, 0.0, 0.0, 0.0, 0.0, 0.0, 0.0, 0.0, 0.0, 0.0, 1.7272855587436376E9, 0.0, 2024-09-25 12:32:38.743
230.0, 116799.68885179627, 187500.0, 152115.26627722578, 136962.39286212836, 60250.35652522523, 112343.33215276388, 119778.84111152186, 124645.50878352033, -0.254, 0.8260000000000001, 0.47800000000000004, 192.0, 0.0, 0.0, 0.0, 0.0, 0.0, 0.0, 0.0, 0.0, 0.0, 1.7272855587466648E9, 0.0, 2024-09-25 12:32:38.746
231.0, 116822.48763114067, 187500.0, 152143.94356536193, 136973.12169946692, 60277.69270869407, 112351.4681877456, 119794.46498089613, 124650.0685393892, -0.254, 0.8260000000000001, 0.47800000000000004, 192.0, 0.0, 0.0, 0.0, 0.0, 0.0, 0.0, 0.0, 0.0, 0.0, 1.7272855587516935E9, 0.0, 2024-09-25 12:32:38.751
232.0, 116813.65869208083, 187500.0, 152187.44006007197, 136981.95063852676, 60302.07846189481, 112361.32530705039, 119795.71667858562, 124664.61952502962, -0.254, 0.8260000000000001, 0.47800000000000004, 192.0, 0.0, 0.0, 0.0, 0.0, 0.0, 0.0, 0.0, 0.0, 0.0, 1.7272855587566528E9, 0.0, 2024-09-25 12:32:38.756
233.0, 116799.17476167378, 187500.0, 152165.15537085003, 136974.82043204553, 60281.44780176256, 112358.97837388258, 119792.81095180643, 124659.18805112697, -0.254, 0.8260000000000001, 0.47800000000000004, 192.0, 0.0, 0.0, 0.0, 0.0, 0.0, 0.0, 0.0, 0.0, 0.0, 1.7272855587606995E9, 0.0, 2024-09-25 12:32:38.760
234.0, 116798.14658142884, 187500.0, 152123.2458499963, 136967.04202497506, 60259.43133347409, 112352.83164415737, 119795.38140241879, 124651.36494056761, -0.262, 0.8260000000000001, 0.47600000000000003, 192.0, 247.0, 208.0, 25.0, 208.0, 14.0, 224.0, 0.0, 0.0, 0.0, 1.727285558764736E9, 0.0, 2024-09-25 12:32:38.764
235.0, 116816.69852932675, 187500.0, 152135.2040332799, 136973.56873435603, 60273.20000805856, 112351.84816740135, 119796.58839661938, 124646.24639108735, -0.262, 0.8260000000000001, 0.47600000000000003, 192.0, 0.0, 0.0, 0.0, 0.0, 0.0, 0.0, 0.0, 0.0, 0.0, 1.7272855587687397E9, 0.0, 2024-09-25 12:32:38.768
236.0, 116827.53912538757, 187500.0, 152180.2651501018, 136991.584240387, 60302.614903761736, 112364.16397859622, 119800.23173096559, 124657.10933889262, -0.262, 0.8260000000000001, 0.47600000000000003, 192.0, 0.0, 0.0, 0.0, 0.0, 0.0, 0.0, 0.0, 0.0, 0.0, 1.7272855587727327E9, 0.0, 2024-09-25 12:32:38.772
237.0, 116808.070755967, 187500.0, 152166.96586215092, 136991.11485375345, 60291.23786583399, 112368.79078969847, 119800.36584143233, 124657.3775598261, -0.262, 0.8260000000000001, 0.47600000000000003, 192.0, 0.0, 0.0, 0.0, 0.0, 0.0, 0.0, 0.0, 0.0, 0.0, 1.727285558776693E9, 0.0, 2024-09-25 12:32:38.776
238.0, 116800.69468029674, 187500.0, 152117.32263771567, 136976.4297576463, 60263.78992364287, 112363.29226056246, 119798.6224053648, 124649.10741437763, -0.262, 0.8260000000000001, 0.47600000000000003, 192.0, 0.0, 0.0, 0.0, 0.0, 0.0, 0.0, 0.0, 0.0, 0.0, 1.72728555877975E9, 0.0, 2024-09-25 12:32:38.779
239.0, 116822.64409335186, 187500.0, 152118.57433540517, 136979.35783616995, 60270.89777837966, 112362.35348729533, 119806.51257115754, 124640.85962067363, -0.262, 0.8260000000000001, 0.47600000000000003, 192.0, 0.0, 0.0, 0.0, 0.0, 0.0, 0.0, 0.0, 0.0, 0.0, 1.72728555878273E9, 0.0, 2024-09-25 12:32:38.782
240.0, 116824.074604997, 187500.0, 152173.64903374304, 136992.25479272066, 60302.10081363926, 112377.53032178049, 119805.39498393476, 124665.64770527456, -0.262, 0.8260000000000001, 0.47600000000000003, 192.0, 0.0, 0.0, 0.0, 0.0, 0.0, 0.0, 0.0, 0.0, 0.0, 1.7272855587857113E9, 0.0, 2024-09-25 12:32:38.785
241.0, 116812.36229090241, 187500.0, 152175.34776632165, 136989.63963861938, 60296.043490891876, 112381.01719391551, 119806.89255081327, 124671.23564138838, -0.262, 0.8260000000000001, 0.47600000000000003, 192.0, 0.0, 0.0, 0.0, 0.0, 0.0, 0.0, 0.0, 0.0, 0.0, 1.7272855587897031E9, 0.0, 2024-09-25 12:32:38.789
242.0, 116803.82392452049, 187500.0, 152128.94554483242, 136976.67562683532, 60265.80158064385, 112372.74704846705, 119806.71373685764, 124664.59717328516, -0.262, 0.8260000000000001, 0.47600000000000003, 192.0, 0.0, 0.0, 0.0, 0.0, 0.0, 0.0, 0.0, 0.0, 0.0, 1.727285558793743E9, 0.0, 2024-09-25 12:32:38.793
243.0, 116812.20582869124, 187500.0, 152118.28376272725, 136974.68632157877, 60261.46534221952, 112365.99682164154, 119808.54657990296, 124657.93635343747, -0.262, 0.8260000000000001, 0.47600000000000003, 192.0, 0.0, 0.0, 0.0, 0.0, 0.0, 0.0, 0.0, 0.0, 0.0, 1.727285558797819E9, 0.0, 2024-09-25 12:32:38.797
244.0, 116816.36325315991, 187500.0, 152162.36140279312, 136982.75530132715, 60286.96868264302, 112368.70138272064, 119806.64668162426, 124667.88287972008, -0.256, 0.8300000000000001, 0.488, 192.0, 248.0, 0.0, 25.0, 240.0, 15.0, 64.0, 0.0, 0.0, 0.0, 1.7272855588027809E9, 0.0, 2024-09-25 12:32:38.802
245.0, 116815.826811293, 187500.0, 152173.2690540873, 136989.17025198584, 60286.186371587086, 112372.09884787785, 119811.92169331571, 124665.22302212991, -0.256, 0.8300000000000001, 0.488, 192.0, 0.0, 0.0, 0.0, 0.0, 0.0, 0.0, 0.0, 0.0, 0.0, 1.727285558805785E9, 0.0, 2024-09-25 12:32:38.805
246.0, 116803.55570358703, 187500.0, 152138.0203530813, 136984.65519960586, 60262.337060253274, 112372.67999323369, 119812.72635611611, 124666.4747198194, -0.256, 0.8300000000000001, 0.488, 192.0, 0.0, 0.0, 0.0, 0.0, 0.0, 0.0, 0.0, 0.0, 0.0, 1.7272855588097515E9, 0.0, 2024-09-25 12:32:38.809
247.0, 116802.88515125337, 187500.0, 152116.2050504929, 136975.75920531264, 60249.127179280185, 112365.61684198581, 119809.79827759246, 124662.16083313953, -0.256, 0.8300000000000001, 0.488, 192.0, 0.0, 0.0, 0.0, 0.0, 0.0, 0.0, 0.0, 0.0, 0.0, 1.7272855588138266E9, 0.0, 2024-09-25 12:32:38.813
248.0, 116821.50415438465, 187500.0, 152151.20788230991, 136984.34227518347, 60270.27192953491, 112364.40984778522, 119811.00527179305, 124654.29301909126, -0.256, 0.8300000000000001, 0.488, 192.0, 0.0, 0.0, 0.0, 0.0, 0.0, 0.0, 0.0, 0.0, 0.0, 1.7272855588178513E9, 0.0, 2024-09-25 12:32:38.817
249.0, 116823.94049453027, 187500.0, 152177.73940297836, 136992.12068225394, 60282.29716805186, 112369.55074900994, 119813.86629508332, 124656.81876621471, -0.256, 0.8300000000000001, 0.488, 192.0, 0.0, 0.0, 0.0, 0.0, 0.0, 0.0, 0.0, 0.0, 0.0, 1.7272855588218608E9, 0.0, 2024-09-25 12:32:38.821
250.0, 116814.59746534795, 187500.0, 152149.2185770534, 136985.14693798387, 60263.16407479812, 112370.66833623272, 119810.5358851595, 124662.45140581745, -0.256, 0.8300000000000001, 0.488, 192.0, 0.0, 0.0, 0.0, 0.0, 0.0, 0.0, 0.0, 0.0, 0.0, 1.727285558825897E9, 0.0, 2024-09-25 12:32:38.825
251.0, 116815.826811293, 187500.0, 152118.82020459417, 136976.94384776877, 60246.35556296773, 112362.64405997326, 119806.3337572019, 124659.61273427162, -0.256, 0.8300000000000001, 0.488, 192.0, 0.0, 0.0, 0.0, 0.0, 0.0, 0.0, 0.0, 0.0, 0.0, 1.7272855588298974E9, 0.0, 2024-09-25 12:32:38.829
252.0, 116828.38849167687, 187500.0, 152154.42653351146, 136985.10223449496, 60271.63538594668, 112370.64598448825, 119812.2346177381, 124673.29200187828, -0.256, 0.8300000000000001, 0.488, 192.0, 0.0, 0.0, 0.0, 0.0, 0.0, 0.0, 0.0, 0.0, 0.0, 1.7272855588329103E9, 0.0, 2024-09-25 12:32:38.832
253.0, 116829.90841029983, 187500.0, 152180.8686472021, 136992.41125493185, 60281.358394784744, 112369.43899028767, 119815.07328928392, 124661.22205987241, -0.256, 0.8300000000000001, 0.488, 192.0, 0.0, 0.0, 0.0, 0.0, 0.0, 0.0, 0.0, 0.0, 0.0, 1.7272855588379102E9, 0.0, 2024-09-25 12:32:38.837
254.0, 116821.07947124, 187500.0, 152156.39348702354, 136990.22078397524, 60263.11937130921, 112368.27669957599, 119817.77785036301, 124655.76823422531, -0.258, 0.8300000000000001, 0.488, 192.0, 247.0, 240.0, 25.0, 240.0, 15.0, 64.0, 0.0, 0.0, 0.0, 1.7272855588419473E9, 0.0, 2024-09-25 12:32:38.841
255.0, 116815.51388687061, 187500.0, 152128.87848959907, 136979.9836850147, 60247.674315890596, 112366.57796699739, 119810.29001597047, 124665.71476050792, -0.258, 0.8300000000000001, 0.488, 192.0, 0.0, 0.0, 0.0, 0.0, 0.0, 0.0, 0.0, 0.0, 0.0, 1.7272855588459456E9, 0.0, 2024-09-25 12:32:38.845
0.0, 116838.75970110414, 187500.0, 152153.33129803315, 136989.23730721918, 60264.59458644326, 112367.94142340917, 119821.86821959833, 124663.61369652912, -0.258, 0.8300000000000001, 0.488, 192.0, 0.0, 0.0, 0.0, 0.0, 0.0, 0.0, 0.0, 0.0, 0.0, 1.7272855588499458E9, 0.0, 2024-09-25 12:32:38.849
1.0, 116835.33988420248, 187500.0, 152198.9735602109, 137005.4870254382, 60289.56148499984, 112381.75480148254, 119821.24237075358, 124682.70208629395, -0.258, 0.8300000000000001, 0.488, 192.0, 0.0, 0.0, 0.0, 0.0, 0.0, 0.0, 0.0, 0.0, 0.0, 1.7272855588528998E9, 0.0, 2024-09-25 12:32:38.852
2.0, 116821.70532008474, 187500.0, 152182.03093791378, 137004.41414170436, 60276.955101127045, 112385.5322462955, 119823.47754519912, 124691.19574918697, -0.258, 0.8300000000000001, 0.488, 192.0, 0.0, 0.0, 0.0, 0.0, 0.0, 0.0, 0.0, 0.0, 0.0, 1.72728555885685E9, 0.0, 2024-09-25 12:32:38.856
3.0, 116820.2301049507, 187500.0, 152135.82988212467, 136995.09346426648, 60251.094132792256, 112379.9219584372, 119822.27055099852, 124687.3288973962, -0.258, 0.8300000000000001, 0.488, 192.0, 0.0, 0.0, 0.0, 0.0, 0.0, 0.0, 0.0, 0.0, 0.0, 1.7272855588608873E9, 0.0, 2024-09-25 12:32:38.860
4.0, 116842.0230557946, 187500.0, 152136.67924841397, 136997.82037709004, 60253.55282468234, 112373.21643510062, 119824.4833736996, 124667.39114134207, -0.258, 0.8300000000000001, 0.488, 192.0, 0.0, 0.0, 0.0, 0.0, 0.0, 0.0, 0.0, 0.0, 0.0, 1.7272855588659456E9, 0.0, 2024-09-25 12:32:38.865
5.0, 116844.90643082935, 187500.0, 152189.98815893987, 137012.97485983072, 60285.135839597686, 112389.46615331962, 119819.34247247488, 124687.7312287964, -0.258, 0.8300000000000001, 0.488, 192.0, 0.0, 0.0, 0.0, 0.0, 0.0, 0.0, 0.0, 0.0, 0.0, 1.7272855588699677E9, 0.0, 2024-09-25 12:32:38.869
6.0, 116833.88702081288, 187500.0, 152188.6247025281, 137015.21003427627, 60281.11252559573, 112395.38936560028, 119827.94789409018, 124699.60000510217, -0.258, 0.8300000000000001, 0.488, 192.0, 0.0, 0.0, 0.0, 0.0, 0.0, 0.0, 0.0, 0.0, 0.0, 1.7272855588739452E9, 0.0, 2024-09-25 12:32:38.873
7.0, 116820.45362239525, 187500.0, 152149.75501892032, 137005.4423219493, 60260.16894104111, 112394.1823713997, 119828.6855016572, 124704.24916794887, -0.258, 0.8300000000000001, 0.488, 192.0, 0.0, 0.0, 0.0, 0.0, 0.0, 0.0, 0.0, 0.0, 0.0, 1.7272855588779728E9, 0.0, 2024-09-25 12:32:38.877
8.0, 116833.30587545704, 187500.0, 152153.93479513345, 137007.1410545279, 60266.78505739988, 112396.59635980087, 119827.8808388568, 124710.15002848508, -0.258, 0.8280000000000001, 0.486, 192.0, 247.0, 240.0, 25.0, 224.0, 15.0, 48.0, 0.0, 0.0, 0.0, 1.7272855588819807E9, 0.0, 2024-09-25 12:32:38.881
9.0, 116847.99097156418, 187500.0, 152201.3204933787, 137018.71925815573, 60294.12124086872, 112403.16777267073, 119829.06548131294, 124714.32980469821, -0.258, 0.8280000000000001, 0.486, 192.0, 0.0, 0.0, 0.0, 0.0, 0.0, 0.0, 0.0, 0.0, 0.0, 1.727285558884964E9, 0.0, 2024-09-25 12:32:38.884
10.0, 116840.79370984957, 187500.0, 152192.1115746631, 137012.7960458751, 60284.17471458611, 112393.06478417692, 119831.70298715866, 124691.26280442033, -0.258, 0.8280000000000001, 0.486, 192.0, 0.0, 0.0, 0.0, 0.0, 0.0, 0.0, 0.0, 0.0, 0.0, 1.7272855588889463E9, 0.0, 2024-09-25 12:32:38.888
11.0, 116829.52843064409, 187500.0, 152151.14082707654, 137005.2411562492, 60261.442990475065, 112391.36605159832, 119830.85362086935, 124687.86533926312, -0.258, 0.8280000000000001, 0.486, 192.0, 0.0, 0.0, 0.0, 0.0, 0.0, 0.0, 0.0, 0.0, 0.0, 1.7272855588929908E9, 0.0, 2024-09-25 12:32:38.892
12.0, 116829.05904401053, 187500.0, 152137.14863504752, 137003.3859614594, 60258.134932295674, 112388.43797307467, 119831.59122843639, 124682.7244380384, -0.258, 0.8280000000000001, 0.486, 192.0, 0.0, 0.0, 0.0, 0.0, 0.0, 0.0, 0.0, 0.0, 0.0, 1.7272855588989625E9, 0.0, 2024-09-25 12:32:38.898
13.0, 116838.29031447058, 187500.0, 152180.19809486845, 137013.35483948648, 60287.48277276549, 112393.35535685485, 119829.46781271313, 124689.40760963055, -0.258, 0.8280000000000001, 0.486, 192.0, 0.0, 0.0, 0.0, 0.0, 0.0, 0.0, 0.0, 0.0, 0.0, 1.72728555890199E9, 0.0, 2024-09-25 12:32:38.901
14.0, 116832.81413707903, 187500.0, 152194.79378399777, 137019.32275525603, 60294.6800344801, 112397.89276097927, 119830.27247551353, 124691.95570849846, -0.258, 0.8280000000000001, 0.486, 192.0, 0.0, 0.0, 0.0, 0.0, 0.0, 0.0, 0.0, 0.0, 0.0, 1.7272855589060085E9, 0.0, 2024-09-25 12:32:38.906
15.0, 116819.13486947237, 187500.0, 152154.35947827811, 137010.0467813071, 60272.79767665836, 112392.9306737102, 119830.85362086935, 124686.36777238462, -0.258, 0.8280000000000001, 0.486, 192.0, 0.0, 0.0, 0.0, 0.0, 0.0, 0.0, 0.0, 0.0, 0.0, 1.727285558909043E9, 0.0, 2024-09-25 12:32:38.909
16.0, 116825.03573000857, 187500.0, 152134.3099635017, 137005.66583939386, 60264.03579283188, 112390.96372019812, 119830.51834470253, 124685.00431597285, -0.258, 0.8280000000000001, 0.486, 192.0, 0.0, 0.0, 0.0, 0.0, 0.0, 0.0, 0.0, 0.0, 0.0, 1.727285558913026E9, 0.0, 2024-09-25 12:32:38.913
17.0, 116834.1775934908, 187500.0, 152170.58684475266, 137009.46563595126, 60286.14166809818, 112393.24359813257, 119820.23654225309, 124693.6320893326, -0.258, 0.8280000000000001, 0.486, 192.0, 0.0, 0.0, 0.0, 0.0, 0.0, 0.0, 0.0, 0.0, 0.0, 1.7272855589170184E9, 0.0, 2024-09-25 12:32:38.917
18.0, 116832.47886091219, 187500.0, 152189.0270339283, 137010.06913305153, 60292.02017688992, 112391.6789760207, 119816.70496662916, 124693.07329572122, -0.258, 0.8280000000000001, 0.486, 192.0, 0.0, 0.0, 0.0, 0.0, 0.0, 0.0, 0.0, 0.0, 0.0, 1.7272855589210215E9, 0.0, 2024-09-25 12:32:38.921
19.0, 116824.49928814165, 187500.0, 152153.55481547772, 137002.87187133695, 60268.3273277673, 112386.71688875162, 119821.35412947586, 124684.49022585039, -0.254, 0.8280000000000001, 0.486, 192.0, 248.0, 16.0, 25.0, 224.0, 15.0, 48.0, 0.0, 0.0, 0.0, 1.7272855589250164E9, 0.0, 2024-09-25 12:32:38.925
20.0, 116824.9239712863, 187500.0, 152127.5597366762, 137001.19549050278, 60258.69372590706, 112389.48850506407, 119824.17044927723, 124687.99944972986, -0.254, 0.8280000000000001, 0.486, 192.0, 0.0, 0.0, 0.0, 0.0, 0.0, 0.0, 0.0, 0.0, 0.0, 1.727285558930013E9, 0.0, 2024-09-25 12:32:38.930
21.0, 116847.85686109745, 187500.0, 152157.28755680175, 137014.47242670922, 60279.9278831396, 112394.13766791078, 119829.06548131294, 124690.50284510886, -0.254, 0.8280000000000001, 0.486, 192.0, 0.0, 0.0, 0.0, 0.0, 0.0, 0.0, 0.0, 0.0, 0.0, 1.7272855589340775E9, 0.0, 2024-09-25 12:32:38.934
22.0, 116853.40009372236, 187500.0, 152191.30691186272, 137026.1400373149, 60297.04931939237, 112397.62454004581, 119831.85944936985, 124692.00041198736, -0.254, 0.8280000000000001, 0.486, 192.0, 0.0, 0.0, 0.0, 0.0, 0.0, 0.0, 0.0, 0.0, 0.0, 1.7272855589370654E9, 0.0, 2024-09-25 12:32:38.937
23.0, 116832.74708184566, 187500.0, 152177.18060936697, 137023.32371751353, 60286.92397915411, 112404.06184244894, 119830.07130981343, 124707.40076391707, -0.254, 0.8280000000000001, 0.486, 192.0, 0.0, 0.0, 0.0, 0.0, 0.0, 0.0, 0.0, 0.0, 0.0, 1.727285558941064E9, 0.0, 2024-09-25 12:32:38.941
24.0, 116827.33795968747, 187500.0, 152141.68603917194, 137011.36553422996, 60266.09215332176, 112396.48460107858, 119827.21028652314, 124701.56695861423, -0.254, 0.8280000000000001, 0.486, 192.0, 0.0, 0.0, 0.0, 0.0, 0.0, 0.0, 0.0, 0.0, 0.0, 1.7272855589449773E9, 0.0, 2024-09-25 12:32:38.944
25.0, 116846.76162561914, 187500.0, 152164.23894932735, 137017.4005052329, 60283.30299655235, 112398.38449935729, 119831.92650460321, 124701.76812431433, -0.254, 0.8280000000000001, 0.486, 192.0, 0.0, 0.0, 0.0, 0.0, 0.0, 0.0, 0.0, 0.0, 0.0, 1.7272855589490042E9, 0.0, 2024-09-25 12:32:38.949
26.0, 116853.95888733375, 187500.0, 152202.9298189795, 137028.3975635049, 60302.123165383724, 112402.85484824835, 119835.61454243834, 124699.55530161326, -0.254, 0.8280000000000001, 0.486, 192.0, 0.0, 0.0, 0.0, 0.0, 0.0, 0.0, 0.0, 0.0, 0.0, 1.7272855589530134E9, 0.0, 2024-09-25 12:32:38.953
27.0, 116844.81702385153, 187500.0, 152190.63635952907, 137024.82128439203, 60290.63436873369, 112403.32423488192, 119839.86137388485, 124699.84587429118, -0.254, 0.8280000000000001, 0.486, 192.0, 0.0, 0.0, 0.0, 0.0, 0.0, 0.0, 0.0, 0.0, 0.0, 1.7272855589580483E9, 0.0, 2024-09-25 12:32:38.958
28.0, 116841.71013137224, 187500.0, 152146.37990550755, 137011.29847899658, 60266.58389169978, 112395.4787725781, 119839.07906282891, 124688.3347258967, -0.254, 0.8280000000000001, 0.486, 192.0, 0.0, 0.0, 0.0, 0.0, 0.0, 0.0, 0.0, 0.0, 0.0, 1.7272855589620728E9, 0.0, 2024-09-25 12:32:38.962
29.0, 116853.64596291137, 187500.0, 152160.52855974776, 137013.9359848423, 60276.61982496022, 112397.60218830136, 119836.62037093884, 124691.41926663152, -0.254, 0.8260000000000001, 0.488, 192.0, 248.0, 16.0, 25.0, 208.0, 15.0, 64.0, 0.0, 0.0, 0.0, 1.7272855589650352E9, 0.0, 2024-09-25 12:32:38.965
30.0, 116859.6362304254, 187500.0, 152210.46235686092, 137027.7046594268, 60307.711101497545, 112405.8276302609, 119843.81763265344, 124700.51642662483, -0.254, 0.8260000000000001, 0.488, 192.0, 0.0, 0.0, 0.0, 0.0, 0.0, 0.0, 0.0, 0.0, 0.0, 1.7272855589691317E9, 0.0, 2024-09-25 12:32:38.969
31.0, 116851.70136114376, 187500.0, 152209.81415627172, 137028.5540257161, 60304.09011889579, 112412.1308221973, 119841.24718204107, 124708.22777846192, -0.254, 0.8260000000000001, 0.488, 192.0, 0.0, 0.0, 0.0, 0.0, 0.0, 0.0, 0.0, 0.0, 0.0, 1.7272855589731128E9, 0.0, 2024-09-25 12:32:38.973
32.0, 116843.72178837321, 187500.0, 152168.88811217406, 137017.847540122, 60278.40796451664, 112408.44278436218, 119839.32493201792, 124710.12767674062, -0.254, 0.8260000000000001, 0.488, 192.0, 0.0, 0.0, 0.0, 0.0, 0.0, 0.0, 0.0, 0.0, 0.0, 1.7272855589770336E9, 0.0, 2024-09-25 12:32:38.977
33.0, 116853.71301814474, 187500.0, 152162.80843768222, 137018.3839819889, 60281.47015350702, 112402.87719999281, 119844.37642626482, 124698.57182485722, -0.254, 0.8260000000000001, 0.488, 192.0, 0.0, 0.0, 0.0, 0.0, 0.0, 0.0, 0.0, 0.0, 0.0, 1.7272855589830904E9, 0.0, 2024-09-25 12:32:38.983
34.0, 116855.09882630096, 187500.0, 152212.49636560635, 137028.50932222718, 60312.76259574445, 112410.34268264088, 119835.77100464953, 124713.52514189783, -0.254, 0.8260000000000001, 0.488, 192.0, 0.0, 0.0, 0.0, 0.0, 0.0, 0.0, 0.0, 0.0, 0.0, 1.727285558986148E9, 0.0, 2024-09-25 12:32:38.986
35.0, 116850.80729136555, 187500.0, 152211.55759233923, 137026.095333826, 60304.93948518509, 112406.29701689447, 119832.37353949233, 124709.32301394023, -0.254, 0.8260000000000001, 0.488, 192.0, 0.0, 0.0, 0.0, 0.0, 0.0, 0.0, 0.0, 0.0, 0.0, 1.7272855589910913E9, 0.0, 2024-09-25 12:32:38.991
36.0, 116846.67221864131, 187500.0, 152166.92115866198, 137019.1439413004, 60277.8268191608, 112400.21734240263, 119839.36963550684, 124699.77881905781, -0.254, 0.8260000000000001, 0.488, 192.0, 0.0, 0.0, 0.0, 0.0, 0.0, 0.0, 0.0, 0.0, 0.0, 1.7272855589941175E9, 0.0, 2024-09-25 12:32:38.994
37.0, 116849.80146286506, 187500.0, 152161.75790569282, 137017.0428773216, 60280.15140058415, 112403.21247615964, 119838.29675177298, 124711.62524361913, -0.254, 0.8260000000000001, 0.488, 192.0, 0.0, 0.0, 0.0, 0.0, 0.0, 0.0, 0.0, 0.0, 0.0, 1.7272855589981203E9, 0.0, 2024-09-25 12:32:38.998
38.0, 116866.72173341773, 187500.0, 152206.7743190258, 137029.5375024721, 60303.732490984505, 112408.5768948289, 119837.60384769486, 124721.0353280348, -0.254, 0.8260000000000001, 0.488, 192.0, 0.0, 0.0, 0.0, 0.0, 0.0, 0.0, 0.0, 0.0, 0.0, 1.7272855590011857E9, 0.0, 2024-09-25 12:32:39.001
39.0, 116860.53030020361, 187500.0, 152227.49438613586, 137039.9534153883, 60311.063863165844, 112416.64587457728, 119837.49208897259, 124731.33948222871, -0.258, 0.8200000000000001, 0.492, 192.0, 247.0, 240.0, 25.0, 160.0, 15.0, 96.0, 0.0, 0.0, 0.0, 1.7272855590051453E9, 0.0, 2024-09-25 12:32:39.005
40.0, 116844.1241197734, 187500.0, 152190.03286242878, 137031.1468280729, 60285.85109542026, 112414.25423792056, 119833.64758892628, 124729.8419153502, -0.258, 0.8200000000000001, 0.492, 192.0, 0.0, 0.0, 0.0, 0.0, 0.0, 0.0, 0.0, 0.0, 0.0, 1.727285559011109E9, 0.0, 2024-09-25 12:32:39.011
41.0, 116853.44479721127, 187500.0, 152163.81426618272, 137027.5481972156, 60273.98231911449, 112407.50401109505, 119837.02270233903, 124713.0334035198, -0.258, 0.8200000000000001, 0.492, 192.0, 0.0, 0.0, 0.0, 0.0, 0.0, 0.0, 0.0, 0.0, 0.0, 1.7272855590162077E9, 0.0, 2024-09-25 12:32:39.016
42.0, 116873.22609105422, 187500.0, 152199.95703696692, 137038.88053165443, 60301.11733688323, 112411.14734544128, 119840.6883884297, 124709.27831045132, -0.258, 0.8200000000000001, 0.492, 192.0, 0.0, 0.0, 0.0, 0.0, 0.0, 0.0, 0.0, 0.0, 0.0, 1.7272855590201304E9, 0.0, 2024-09-25 12:32:39.020
43.0, 116873.15903582085, 187500.0, 152226.62266810212, 137045.83192418003, 60315.13188065671, 112416.37765364381, 119842.47652798612, 124707.91485403954, -0.258, 0.8200000000000001, 0.492, 192.0, 0.0, 0.0, 0.0, 0.0, 0.0, 0.0, 0.0, 0.0, 0.0, 1.727285559023192E9, 0.0, 2024-09-25 12:32:39.023
44.0, 116853.86948035592, 187500.0, 152197.45364158793, 137035.21484556375, 60294.79179320238, 112417.00350248856, 119839.01200759555, 124710.90998779655, -0.258, 0.8200000000000001, 0.492, 192.0, 0.0, 0.0, 0.0, 0.0, 0.0, 0.0, 0.0, 0.0, 0.0, 1.7272855590261867E9, 0.0, 2024-09-25 12:32:39.026
45.0, 116856.46228271275, 187500.0, 152162.24964407083, 137026.4529617373, 60277.04450810487, 112409.60507507385, 119843.37059776434, 124699.97998475791, -0.258, 0.8200000000000001, 0.492, 192.0, 0.0, 0.0, 0.0, 0.0, 0.0, 0.0, 0.0, 0.0, 0.0, 1.727285559029186E9, 0.0, 2024-09-25 12:32:39.029
46.0, 116868.10754157396, 187500.0, 152195.44198458697, 137036.13126708643, 60304.44774680707, 112415.39417688778, 119845.56106872096, 124710.12767674062, -0.258, 0.8200000000000001, 0.492, 192.0, 0.0, 0.0, 0.0, 0.0, 0.0, 0.0, 0.0, 0.0, 0.0, 1.727285559033188E9, 0.0, 2024-09-25 12:32:39.033
47.0, 116860.57500369252, 187500.0, 152233.2834879498, 137042.25564506717, 60323.513784827446, 112420.5350781125, 119840.9342576187, 124723.20344724697, -0.258, 0.8200000000000001, 0.492, 192.0, 0.0, 0.0, 0.0, 0.0, 0.0, 0.0, 0.0, 0.0, 0.0, 1.72728555903719E9, 0.0, 2024-09-25 12:32:39.037
48.0, 116845.66639014083, 187500.0, 152205.70143529194, 137030.67744143933, 60297.40694730365, 112412.60020883086, 119838.74378666209, 124713.0334035198, -0.258, 0.8200000000000001, 0.492, 192.0, 0.0, 0.0, 0.0, 0.0, 0.0, 0.0, 0.0, 0.0, 0.0, 1.7272855590422451E9, 0.0, 2024-09-25 12:32:39.042
49.0, 116847.29806748606, 187500.0, 152164.61892898308, 137018.9427756003, 60273.15530456964, 112402.65368254826, 119837.60384769486, 124703.60096735967, -0.256, 0.8240000000000001, 0.492, 192.0, 248.0, 0.0, 25.0, 192.0, 15.0, 96.0, 0.0, 0.0, 0.0, 1.7272855590462544E9, 0.0, 2024-09-25 12:32:39.046
50.0, 116866.69938167327, 187500.0, 152189.3623100951, 137027.3470315155, 60299.731528727, 112405.22413316062, 119846.3880832658, 124716.96731054394, -0.256, 0.8240000000000001, 0.492, 192.0, 0.0, 0.0, 0.0, 0.0, 0.0, 0.0, 0.0, 0.0, 0.0, 1.727285559049242E9, 0.0, 2024-09-25 12:32:39.049
51.0, 116869.04631484108, 187500.0, 152229.39428441456, 137040.91454039986, 60325.391331361694, 112410.25327566305, 119851.14900483478, 124717.8837320666, -0.256, 0.8240000000000001, 0.492, 192.0, 0.0, 0.0, 0.0, 0.0, 0.0, 0.0, 0.0, 0.0, 0.0, 1.7272855590532136E9, 0.0, 2024-09-25 12:32:39.053
52.0, 116849.5779454205, 187500.0, 152215.8267755302, 137034.72310718574, 60310.25920036545, 112409.40390937375, 119844.80110940947, 124718.39782218909, -0.256, 0.8240000000000001, 0.492, 192.0, 0.0, 0.0, 0.0, 0.0, 0.0, 0.0, 0.0, 0.0, 0.0, 1.727285559058276E9, 0.0, 2024-09-25 12:32:39.058
53.0, 116842.827718595, 187500.0, 152173.11259187612, 137023.61429019144, 60287.19220008758, 112404.21830466013, 119846.27632454352, 124713.16751398654, -0.256, 0.8240000000000001, 0.492, 192.0, 0.0, 0.0, 0.0, 0.0, 0.0, 0.0, 0.0, 0.0, 0.0, 1.727285559062282E9, 0.0, 2024-09-25 12:32:39.062
54.0, 116856.21641352373, 187500.0, 152175.72774597738, 137020.8873773679, 60290.41085128914, 112399.94912146917, 119846.09751058788, 124704.24916794887, -0.256, 0.8240000000000001, 0.492, 192.0, 0.0, 0.0, 0.0, 0.0, 0.0, 0.0, 0.0, 0.0, 0.0, 1.7272855590652444E9, 0.0, 2024-09-25 12:32:39.065
55.0, 116863.14545430487, 187500.0, 152228.25434544735, 137035.1477903304, 60322.46325283805, 112413.42722337571, 119846.65630419926, 124722.55524665776, -0.256, 0.8240000000000001, 0.492, 192.0, 0.0, 0.0, 0.0, 0.0, 0.0, 0.0, 0.0, 0.0, 0.0, 1.7272855590693061E9, 0.0, 2024-09-25 12:32:39.069
56.0, 116853.55655593355, 187500.0, 152227.33792392467, 137037.53942698712, 60316.69650276858, 112419.12691821181, 119847.05863559946, 124729.66310139456, -0.256, 0.8240000000000001, 0.492, 192.0, 0.0, 0.0, 0.0, 0.0, 0.0, 0.0, 0.0, 0.0, 0.0, 1.727285559073308E9, 0.0, 2024-09-25 12:32:39.073
57.0, 116849.1309105314, 187500.0, 152179.4157838125, 137025.26831928114, 60286.0299093759, 112410.74501404108, 119847.05863559946, 124713.8827698091, -0.256, 0.8240000000000001, 0.492, 192.0, 0.0, 0.0, 0.0, 0.0, 0.0, 0.0, 0.0, 0.0, 0.0, 1.727285559076257E9, 0.0, 2024-09-25 12:32:39.076
58.0, 116855.99289607917, 187500.0, 152177.9629204229, 137022.80962739108, 60289.27091232192, 112410.70031055216, 119846.09751058788, 124712.85458956416, -0.256, 0.8240000000000001, 0.492, 192.0, 0.0, 0.0, 0.0, 0.0, 0.0, 0.0, 0.0, 0.0, 0.0, 1.727285559081334E9, 0.0, 2024-09-25 12:32:39.081
59.0, 116870.99091660869, 187500.0, 152227.42733090252, 137035.8406944085, 60317.21059289105, 112418.72458681162, 119846.56689722145, 124725.08099378122, -0.256, 0.8240000000000001, 0.492, 192.0, 0.0, 0.0, 0.0, 0.0, 0.0, 0.0, 0.0, 0.0, 0.0, 1.7272855590853367E9, 0.0, 2024-09-25 12:32:39.085
60.0, 116867.95107936277, 187500.0, 152226.42150240202, 137035.9524531308, 60312.22615387752, 112414.030720476, 119848.71266468916, 124709.97121452943, -0.262, 0.8220000000000001, 0.498, 192.0, 247.0, 208.0, 25.0, 176.0, 15.0, 144.0, 0.0, 0.0, 0.0, 1.7272855590893097E9, 0.0, 2024-09-25 12:32:39.089
61.0, 116852.43896871079, 187500.0, 152184.3108158482, 137024.86598788094, 60288.980339644, 112411.0802902079, 119845.3375512764, 124711.7370023414, -0.262, 0.8220000000000001, 0.498, 192.0, 0.0, 0.0, 0.0, 0.0, 0.0, 0.0, 0.0, 0.0, 0.0, 1.7272855590932412E9, 0.0, 2024-09-25 12:32:39.093
62.0, 116863.86071012744, 187500.0, 152174.78897271026, 137026.67647918183, 60284.24176981948, 112415.4835838656, 119843.48235648661, 124723.60577864716, -0.262, 0.8220000000000001, 0.498, 192.0, 0.0, 0.0, 0.0, 0.0, 0.0, 0.0, 0.0, 0.0, 0.0, 1.7272855590973225E9, 0.0, 2024-09-25 12:32:39.097
63.0, 116882.12208534744, 187500.0, 152210.66352256102, 137036.71241244226, 60305.92296194112, 112415.46123212115, 119844.42112975373, 124717.12377275513, -0.262, 0.8220000000000001, 0.498, 192.0, 0.0, 0.0, 0.0, 0.0, 0.0, 0.0, 0.0, 0.0, 0.0, 1.7272855591012745E9, 0.0, 2024-09-25 12:32:39.101
64.0, 116872.04144859809, 187500.0, 152229.75191232585, 137043.03795612312, 60315.958895201555, 112418.99280774509, 119844.0858535869, 124716.90025531057, -0.262, 0.8220000000000001, 0.498, 192.0, 0.0, 0.0, 0.0, 0.0, 0.0, 0.0, 0.0, 0.0, 0.0, 1.7272855591043274E9, 0.0, 2024-09-25 12:32:39.104
65.0, 116857.51281470215, 187500.0, 152196.85014448766, 137034.96897637474, 60294.568275757825, 112418.07638622241, 119840.0848913294, 124719.82833383422, -0.262, 0.8220000000000001, 0.498, 192.0, 0.0, 0.0, 0.0, 0.0, 0.0, 0.0, 0.0, 0.0, 0.0, 1.7272855591093056E9, 0.0, 2024-09-25 12:32:39.109
66.0, 116860.03856182558, 187500.0, 152177.0688506447, 137029.17987456082, 60284.152362841654, 112416.80233678846, 119834.80987963795, 124726.26563623735, -0.262, 0.8220000000000001, 0.498, 192.0, 0.0, 0.0, 0.0, 0.0, 0.0, 0.0, 0.0, 0.0, 0.0, 1.72728555911337E9, 0.0, 2024-09-25 12:32:39.113
67.0, 116873.85193989897, 187500.0, 152209.21065917143, 137038.72406944324, 60305.58768577429, 112417.27172342202, 119841.47069948564, 124718.80015358927, -0.262, 0.8220000000000001, 0.498, 192.0, 0.0, 0.0, 0.0, 0.0, 0.0, 0.0, 0.0, 0.0, 0.0, 1.7272855591184852E9, 0.0, 2024-09-25 12:32:39.118
68.0, 116869.42629449682, 187500.0, 152241.2854124648, 137052.53744751663, 60326.732436029015, 112429.76634857254, 119848.8914786448, 124728.43375544951, -0.262, 0.8220000000000001, 0.498, 192.0, 0.0, 0.0, 0.0, 0.0, 0.0, 0.0, 0.0, 0.0, 0.0, 1.7272855591223328E9, 0.0, 2024-09-25 12:32:39.122
69.0, 116855.76937863462, 187500.0, 152218.39722614255, 137048.44707828132, 60314.52838355642, 112437.23183122062, 119851.50663274607, 124741.86715386715, -0.262, 0.8220000000000001, 0.498, 192.0, 0.0, 0.0, 0.0, 0.0, 0.0, 0.0, 0.0, 0.0, 0.0, 1.7272855591273804E9, 0.0, 2024-09-25 12:32:39.127
70.0, 116855.72467514571, 187500.0, 152181.60625476914, 137034.7007554413, 60291.439031534086, 112428.96168577216, 119849.07029260043, 124740.01195907737, -0.266, 0.8140000000000001, 0.502, 192.0, 247.0, 176.0, 25.0, 112.0, 15.0, 176.0, 0.0, 0.0, 0.0, 1.7272855591304016E9, 0.0, 2024-09-25 12:32:39.130
71.0, 116875.17069282183, 187500.0, 152205.79084226978, 137040.48985725522, 60309.16396488714, 112425.02777874802, 119851.75250193507, 124734.26756075234, -0.266, 0.8140000000000001, 0.502, 192.0, 0.0, 0.0, 0.0, 0.0, 0.0, 0.0, 0.0, 0.0, 0.0, 1.727285559133407E9, 0.0, 2024-09-25 12:32:39.133
72.0, 116870.70034393077, 187500.0, 152247.47684567893, 137049.83288643754, 60335.65078206668, 112433.38733117431, 119855.21702232564, 124750.07024408225, -0.266, 0.8140000000000001, 0.502, 192.0, 0.0, 0.0, 0.0, 0.0, 0.0, 0.0, 0.0, 0.0, 0.0, 1.7272855591384077E9, 0.0, 2024-09-25 12:32:39.138
73.0, 116860.10561705896, 187500.0, 152225.2815634348, 137046.83775268053, 60317.54586905788, 112430.86158405086, 119859.50855726107, 124743.3870724901, -0.266, 0.8140000000000001, 0.502, 192.0, 0.0, 0.0, 0.0, 0.0, 0.0, 0.0, 0.0, 0.0, 0.0, 1.7272855591443698E9, 0.0, 2024-09-25 12:32:39.144
74.0, 116856.19406177927, 187500.0, 152191.3292636072, 137040.33339504403, 60295.484697280495, 112429.56518287245, 119855.59700198138, 124748.05858708128, -0.266, 0.8140000000000001, 0.502, 192.0, 0.0, 0.0, 0.0, 0.0, 0.0, 0.0, 0.0, 0.0, 0.0, 1.7272855591474383E9, 0.0, 2024-09-25 12:32:39.147
75.0, 116873.04727709858, 187500.0, 152208.1377754376, 137043.30617705657, 60310.54977304337, 112432.49326139608, 119856.49107175959, 124752.03719759431, -0.266, 0.8140000000000001, 0.502, 192.0, 0.0, 0.0, 0.0, 0.0, 0.0, 0.0, 0.0, 0.0, 0.0, 1.7272855591504345E9, 0.0, 2024-09-25 12:32:39.150
76.0, 116882.21149232525, 187500.0, 152249.82377884674, 137054.25853183967, 60336.723665800535, 112437.54475564299, 119860.31322006145, 124752.88656388361, -0.266, 0.8140000000000001, 0.502, 192.0, 0.0, 0.0, 0.0, 0.0, 0.0, 0.0, 0.0, 0.0, 0.0, 1.727285559153398E9, 0.0, 2024-09-25 12:32:39.153
77.0, 116868.17459680732, 187500.0, 152235.83158681772, 137050.21286609326, 60323.871412738736, 112436.22600272013, 119861.31904856194, 124750.2937615268, -0.266, 0.8140000000000001, 0.502, 192.0, 0.0, 0.0, 0.0, 0.0, 0.0, 0.0, 0.0, 0.0, 0.0, 1.7272855591573868E9, 0.0, 2024-09-25 12:32:39.157
78.0, 116860.23972752568, 187500.0, 152182.29915884725, 137035.3936595194, 60291.19316234507, 112421.76442405755, 119861.1402346063, 124725.41626994805, -0.266, 0.8140000000000001, 0.502, 192.0, 0.0, 0.0, 0.0, 0.0, 0.0, 0.0, 0.0, 0.0, 0.0, 1.7272855591604323E9, 0.0, 2024-09-25 12:32:39.160
79.0, 116869.85097764147, 187500.0, 152187.28359786078, 137037.60648222046, 60301.94435142808, 112421.540906613, 119862.10135961788, 124720.81181059025, -0.266, 0.8140000000000001, 0.502, 192.0, 0.0, 0.0, 0.0, 0.0, 0.0, 0.0, 0.0, 0.0, 0.0, 1.7272855591644232E9, 0.0, 2024-09-25 12:32:39.164
80.0, 116880.37864927991, 187500.0, 152236.12215949563, 137051.68808122733, 60332.521537842935, 112433.99082827459, 119860.20146133918, 124733.88758109661, -0.268, 0.81, 0.502, 192.0, 247.0, 160.0, 25.0, 80.0, 15.0, 176.0, 0.0, 0.0, 0.0, 1.7272855591723993E9, 0.0, 2024-09-25 12:32:39.172
81.0, 116876.24357655569, 187500.0, 152237.30680195175, 137057.9018661859, 60329.05701745237, 112442.90917431226, 119864.64945848579, 124738.58144743223, -0.268, 0.81, 0.502, 192.0, 0.0, 0.0, 0.0, 0.0, 0.0, 0.0, 0.0, 0.0, 0.0, 1.7272855591753576E9, 0.0, 2024-09-25 12:32:39.175
82.0, 116858.13866354688, 187500.0, 152192.2233333854, 137043.30617705657, 60302.99488341748, 112437.1871277317, 119860.9390689062, 124739.05083406578, -0.268, 0.81, 0.502, 192.0, 0.0, 0.0, 0.0, 0.0, 0.0, 0.0, 0.0, 0.0, 0.0, 1.7272855591784189E9, 0.0, 2024-09-25 12:32:39.178
83.0, 116868.35341076297, 187500.0, 152190.7257665069, 137040.75807818866, 60304.96183692954, 112436.71774109814, 119855.35113279238, 124751.5454592163, -0.268, 0.81, 0.502, 192.0, 0.0, 0.0, 0.0, 0.0, 0.0, 0.0, 0.0, 0.0, 0.0, 1.7272855591824117E9, 0.0, 2024-09-25 12:32:39.182
84.0, 116878.56815797904, 187500.0, 152241.88890956508, 137052.62685449445, 60333.61677332125, 112443.60207839038, 119852.04307461299, 124763.21306982197, -0.268, 0.81, 0.502, 192.0, 0.0, 0.0, 0.0, 0.0, 0.0, 0.0, 0.0, 0.0, 0.0, 1.7272855591854138E9, 0.0, 2024-09-25 12:32:39.185
85.0, 116863.39132349388, 187500.0, 152247.47684567893, 137046.5471800026, 60327.69356104059, 112442.66330512325, 119843.81763265344, 124764.50947100038, -0.268, 0.81, 0.502, 192.0, 0.0, 0.0, 0.0, 0.0, 0.0, 0.0, 0.0, 0.0, 0.0, 1.7272855591884067E9, 0.0, 2024-09-25 12:32:39.188
86.0, 116866.07353282852, 187500.0, 152196.60427529862, 137035.5501217306, 60297.563409514834, 112433.87906955232, 119847.79624316648, 124742.58240968973, -0.268, 0.81, 0.502, 192.0, 0.0, 0.0, 0.0, 0.0, 0.0, 0.0, 0.0, 0.0, 0.0, 1.727285559192464E9, 0.0, 2024-09-25 12:32:39.192
87.0, 116878.85873065695, 187500.0, 152181.38273732457, 137035.41601126385, 60294.568275757825, 112429.9898660171, 119851.37252227933, 124735.09457529719, -0.268, 0.81, 0.502, 192.0, 0.0, 0.0, 0.0, 0.0, 0.0, 0.0, 0.0, 0.0, 0.0, 1.7272855592114952E9, 0.0, 2024-09-25 12:32:39.211
88.0, 116890.95102440727, 187500.0, 152228.20964195844, 137051.57632250505, 60321.211555148555, 112436.65068586478, 119857.74276944909, 124740.190773033, -0.268, 0.81, 0.502, 192.0, 0.0, 0.0, 0.0, 0.0, 0.0, 0.0, 0.0, 0.0, 0.0, 1.7272855592154682E9, 0.0, 2024-09-25 12:32:39.215
89.0, 116871.08032358652, 187500.0, 152258.60801441767, 137059.17591561985, 60335.65078206668, 112450.2405464936, 119854.05473161397, 124766.40936927908, -0.268, 0.81, 0.502, 192.0, 0.0, 0.0, 0.0, 0.0, 0.0, 0.0, 0.0, 0.0, 0.0, 1.7272855592184565E9, 0.0, 2024-09-25 12:32:39.218
90.0, 116857.51281470215, 187500.0, 152214.46331911843, 137045.83192418003, 60310.95210444357, 112442.4844911676, 119855.88757465931, 124752.5512877168, -0.266, 0.806, 0.506, 192.0, 247.0, 176.0, 25.0, 48.0, 15.0, 208.0, 0.0, 0.0, 0.0, 1.7272855592214575E9, 0.0, 2024-09-25 12:32:39.221
91.0, 116863.52543396062, 187500.0, 152185.33899609317, 137038.65701420986, 60297.89868568167, 112433.72260734113, 119857.22867932662, 124737.66502590955, -0.266, 0.806, 0.506, 192.0, 0.0, 0.0, 0.0, 0.0, 0.0, 0.0, 0.0, 0.0, 0.0, 1.7272855592254605E9, 0.0, 2024-09-25 12:32:39.225
92.0, 116875.97535562223, 187500.0, 152226.26504019083, 137045.80957243557, 60324.430206350116, 112438.97526728813, 119854.01002812506, 124748.8408981372, -0.266, 0.806, 0.506, 192.0, 0.0, 0.0, 0.0, 0.0, 0.0, 0.0, 0.0, 0.0, 0.0, 1.727285559228526E9, 0.0, 2024-09-25 12:32:39.228
93.0, 116874.45543699925, 187500.0, 152256.81987486125, 137050.74930796018, 60338.15417744568, 112443.22209873464, 119851.68544670171, 124754.11590982866, -0.266, 0.806, 0.506, 192.0, 0.0, 0.0, 0.0, 0.0, 0.0, 0.0, 0.0, 0.0, 0.0, 1.7272855592314656E9, 0.0, 2024-09-25 12:32:39.231
94.0, 116863.30191651607, 187500.0, 152223.94045876747, 137042.88149391193, 60319.0881394253, 112437.43299692072, 119859.19563283869, 124742.47065096744, -0.266, 0.806, 0.506, 192.0, 0.0, 0.0, 0.0, 0.0, 0.0, 0.0, 0.0, 0.0, 0.0, 1.727285559234543E9, 0.0, 2024-09-25 12:32:39.234
95.0, 116861.04439032607, 187500.0, 152194.167935153, 137037.62883396493, 60307.26406660844, 112435.44369166419, 119859.21798458314, 124741.71069165597, -0.266, 0.806, 0.506, 192.0, 0.0, 0.0, 0.0, 0.0, 0.0, 0.0, 0.0, 0.0, 0.0, 1.727285559238557E9, 0.0, 2024-09-25 12:32:39.238
96.0, 116868.17459680732, 187500.0, 152218.91131626503, 137041.74155494472, 60326.0395319509, 112437.16477598724, 119859.46385377215, 124743.81175563476, -0.266, 0.806, 0.506, 192.0, 0.0, 0.0, 0.0, 0.0, 0.0, 0.0, 0.0, 0.0, 0.0, 1.727285559241547E9, 0.0, 2024-09-25 12:32:39.241
97.0, 116870.56623346404, 187500.0, 152253.24359574838, 137054.57145626206, 60344.81499729335, 112442.70800861217, 119867.01874339805, 124742.87298236764, -0.266, 0.806, 0.506, 192.0, 0.0, 0.0, 0.0, 0.0, 0.0, 0.0, 0.0, 0.0, 0.0, 1.7272855592445652E9, 0.0, 2024-09-25 12:32:39.244
98.0, 116860.75381764816, 187500.0, 152232.21060421594, 137058.348901075, 60331.56041283136, 112445.77019760254, 119870.70678123318, 124740.01195907737, -0.266, 0.806, 0.506, 192.0, 0.0, 0.0, 0.0, 0.0, 0.0, 0.0, 0.0, 0.0, 0.0, 1.7272855592475612E9, 0.0, 2024-09-25 12:32:39.247
99.0, 116857.1328350464, 187500.0, 152192.15627815202, 137052.17981960534, 60311.46619456604, 112444.27263072404, 119868.00222015409, 124737.46386020946, -0.266, 0.806, 0.506, 192.0, 0.0, 0.0, 0.0, 0.0, 0.0, 0.0, 0.0, 0.0, 0.0, 1.727285559251649E9, 0.0, 2024-09-25 12:32:39.251
100.0, 116866.47586422872, 187500.0, 152209.8812115051, 137051.97865390524, 60325.21251740605, 112444.3396859574, 119863.97890615213, 124744.77288064634, -0.266, 0.806, 0.506, 192.0, 0.0, 0.0, 0.0, 0.0, 0.0, 0.0, 0.0, 0.0, 0.0, 1.7272855592545862E9, 0.0, 2024-09-25 12:32:39.254
101.0, 116867.81696889603, 187500.0, 152250.80725560276, 137057.96892141926, 60347.743075817, 112446.6866191252, 119861.83313868442, 124752.70774992797, -0.264, 0.804, 0.504, 192.0, 247.0, 192.0, 25.0, 32.0, 15.0, 192.0, 0.0, 0.0, 0.0, 1.7272855592575607E9, 0.0, 2024-09-25 12:32:39.257
102.0, 116863.14545430487, 187500.0, 152237.12798799612, 137056.49370628523, 60336.857776267265, 112443.71383711265, 119868.44925504319, 124743.76705214585, -0.264, 0.804, 0.504, 192.0, 0.0, 0.0, 0.0, 0.0, 0.0, 0.0, 0.0, 0.0, 0.0, 1.7272855592615185E9, 0.0, 2024-09-25 12:32:39.261
103.0, 116862.29608801557, 187500.0, 152201.14167942308, 137052.93977891683, 60316.76355800195, 112443.15504350128, 119872.65138300079, 124742.02361607834, -0.264, 0.804, 0.504, 192.0, 0.0, 0.0, 0.0, 0.0, 0.0, 0.0, 0.0, 0.0, 0.0, 1.727285559264528E9, 0.0, 2024-09-25 12:32:39.264
104.0, 116877.85290215648, 187500.0, 152210.2835429053, 137057.41012780787, 60324.65372379467, 112444.9431830577, 119871.8914236893, 124744.88463936863, -0.264, 0.804, 0.504, 192.0, 0.0, 0.0, 0.0, 0.0, 0.0, 0.0, 0.0, 0.0, 0.0, 1.727285559267623E9, 0.0, 2024-09-25 12:32:39.267
105.0, 116886.90535866086, 187500.0, 152257.7362963839, 137069.56947679157, 60352.63810785271, 112453.28038373952, 119873.9477841792, 124751.7466249164, -0.264, 0.804, 0.504, 192.0, 0.0, 0.0, 0.0, 0.0, 0.0, 0.0, 0.0, 0.0, 0.0, 1.7272855592705724E9, 0.0, 2024-09-25 12:32:39.270
106.0, 116886.57008249404, 187500.0, 152256.14932252758, 137073.5480873046, 60347.67602058363, 112459.27065125355, 119877.9934499256, 124750.51727897135, -0.264, 0.804, 0.504, 192.0, 0.0, 0.0, 0.0, 0.0, 0.0, 0.0, 0.0, 0.0, 0.0, 1.7272855592745943E9, 0.0, 2024-09-25 12:32:39.274
107.0, 116885.85482667146, 187500.0, 152215.75972029683, 137069.56947679157, 60322.686770282606, 112459.98590707612, 119881.48032206063, 124747.25392428089, -0.264, 0.804, 0.504, 192.0, 0.0, 0.0, 0.0, 0.0, 0.0, 0.0, 0.0, 0.0, 0.0, 1.727285559277549E9, 0.0, 2024-09-25 12:32:39.277
108.0, 116896.96364366576, 187500.0, 152211.95992373943, 137075.2468198832, 60323.42437784963, 112464.70212515618, 119887.11296166337, 124746.18104054703, -0.264, 0.804, 0.504, 192.0, 0.0, 0.0, 0.0, 0.0, 0.0, 0.0, 0.0, 0.0, 0.0, 1.727285559280549E9, 0.0, 2024-09-25 12:32:39.280
109.0, 116911.26876011715, 187500.0, 152265.60411043218, 137094.24580267022, 60359.18716897812, 112481.86826489786, 119894.10905767788, 124766.34231404572, -0.264, 0.804, 0.504, 192.0, 0.0, 0.0, 0.0, 0.0, 0.0, 0.0, 0.0, 0.0, 0.0, 1.727285559285589E9, 0.0, 2024-09-25 12:32:39.285
110.0, 116914.53211480763, 187500.0, 152274.92478787003, 137097.93384050534, 60359.589500378315, 112486.71859344466, 119894.69020303372, 124762.87779365513, -0.264, 0.804, 0.504, 192.0, 0.0, 0.0, 0.0, 0.0, 0.0, 0.0, 0.0, 0.0, 0.0, 1.7272855592896001E9, 0.0, 2024-09-25 12:32:39.289
111.0, 116908.76536473815, 187500.0, 152233.37289492763, 137087.361465378, 60332.96857273205, 112483.0976108429, 119892.47738033264, 124758.00511336388, -0.268, 0.808, 0.504, 192.0, 247.0, 160.0, 25.0, 64.0, 15.0, 192.0, 0.0, 0.0, 0.0, 1.727285559292596E9, 0.0, 2024-09-25 12:32:39.292
112.0, 116908.38538508242, 187500.0, 152216.40792088603, 137079.09131992952, 60324.36315111675, 112478.8954828853, 119889.70576402018, 124761.26846805436, -0.268, 0.808, 0.504, 192.0, 0.0, 0.0, 0.0, 0.0, 0.0, 0.0, 0.0, 0.0, 0.0, 1.727285559296621E9, 0.0, 2024-09-25 12:32:39.296
113.0, 116915.73910900821, 187500.0, 152252.90831958156, 137084.52279383218, 60346.37961940523, 112478.09082008492, 119886.30829886298, 124761.51433724337, -0.268, 0.808, 0.504, 192.0, 0.0, 0.0, 0.0, 0.0, 0.0, 0.0, 0.0, 0.0, 0.0, 1.727285559300619E9, 0.0, 2024-09-25 12:32:39.300
114.0, 116904.45147805828, 187500.0, 152265.67116566552, 137086.69091304432, 60353.37571541974, 112475.22979679464, 119886.91179596327, 124754.00415110639, -0.268, 0.808, 0.504, 192.0, 0.0, 0.0, 0.0, 0.0, 0.0, 0.0, 0.0, 0.0, 0.0, 1.7272855593046174E9, 0.0, 2024-09-25 12:32:39.304
115.0, 116871.12502707542, 187500.0, 152223.15814771154, 137068.13896514644, 60328.3864651187, 112462.75752338857, 119875.35594407987, 124753.17713656154, -0.268, 0.808, 0.504, 192.0, 0.0, 0.0, 0.0, 0.0, 0.0, 0.0, 0.0, 0.0, 0.0, 1.727285559310619E9, 0.0, 2024-09-25 12:32:39.310
116.0, 116874.90247188837, 187500.0, 152183.41674607, 137051.86689518296, 60307.778156730914, 112445.47962492463, 119875.73592373561, 124724.186924003, -0.268, 0.808, 0.504, 192.0, 0.0, 0.0, 0.0, 0.0, 0.0, 0.0, 0.0, 0.0, 0.0, 1.7272855593136334E9, 0.0, 2024-09-25 12:32:39.313
117.0, 116888.44762902829, 187500.0, 152224.1863279565, 137064.54033428914, 60338.73532280151, 112456.61079366336, 119881.23445287162, 124733.46289795196, -0.268, 0.808, 0.504, 192.0, 0.0, 0.0, 0.0, 0.0, 0.0, 0.0, 0.0, 0.0, 0.0, 1.7272855593166523E9, 0.0, 2024-09-25 12:32:39.316
118.0, 116886.95006214977, 187500.0, 152261.7372586414, 137074.93389546085, 60358.22604396654, 112469.73126765863, 119882.41909532776, 124750.450223738, -0.268, 0.808, 0.504, 192.0, 0.0, 0.0, 0.0, 0.0, 0.0, 0.0, 0.0, 0.0, 0.0, 1.7272855593216412E9, 0.0, 2024-09-25 12:32:39.321
119.0, 116878.34464053449, 187500.0, 152228.07553149172, 137067.3566540905, 60336.83542452281, 112465.64089842331, 119880.4968453046, 124744.45995622397, -0.268, 0.808, 0.504, 192.0, 0.0, 0.0, 0.0, 0.0, 0.0, 0.0, 0.0, 0.0, 0.0, 1.7272855593268068E9, 0.0, 2024-09-25 12:32:39.326
120.0, 116884.78194293761, 187500.0, 152186.05425191575, 137058.08068014155, 60315.24363937898, 112452.92275582824, 119880.83212147142, 124725.4386216925, -0.268, 0.808, 0.504, 192.0, 0.0, 0.0, 0.0, 0.0, 0.0, 0.0, 0.0, 0.0, 0.0, 1.7272855593316553E9, 0.0, 2024-09-25 12:32:39.331
121.0, 116894.66141398686, 187500.0, 152216.3408656527, 137066.3955290789, 60340.61286933576, 112455.78377911852, 119886.68827851872, 124727.56203741576, -0.266, 0.808, 0.512, 192.0, 247.0, 176.0, 25.0, 64.0, 16.0, 0.0, 0.0, 0.0, 0.0, 1.727285559335671E9, 0.0, 2024-09-25 12:32:39.335
122.0, 116889.72167846224, 187500.0, 152264.1959505315, 137079.09131992952, 60366.227968481544, 112470.24535778111, 119884.16253139527, 124751.32194177175, -0.266, 0.808, 0.512, 192.0, 0.0, 0.0, 0.0, 0.0, 0.0, 0.0, 0.0, 0.0, 0.0, 1.7272855593386703E9, 0.0, 2024-09-25 12:32:39.338
123.0, 116877.85290215648, 187500.0, 152248.66148813505, 137076.31970361707, 60352.41459040816, 112476.7497154176, 119885.07895291793, 124766.72229370146, -0.266, 0.808, 0.512, 192.0, 0.0, 0.0, 0.0, 0.0, 0.0, 0.0, 0.0, 0.0, 0.0, 1.7272855593416064E9, 0.0, 2024-09-25 12:32:39.341
124.0, 116879.0822481015, 187500.0, 152199.3758916111, 137058.52771503065, 60322.239735393494, 112462.89163385531, 119883.29081336151, 124748.192697548, -0.266, 0.808, 0.512, 192.0, 0.0, 0.0, 0.0, 0.0, 0.0, 0.0, 0.0, 0.0, 0.0, 1.727285559345646E9, 0.0, 2024-09-25 12:32:39.345
125.0, 116898.79648671109, 187500.0, 152214.19509818495, 137064.38387207795, 60335.42726462213, 112460.70116289868, 119885.88361571833, 124737.441508465, -0.266, 0.808, 0.512, 192.0, 0.0, 0.0, 0.0, 0.0, 0.0, 0.0, 0.0, 0.0, 0.0, 1.7272855593486576E9, 0.0, 2024-09-25 12:32:39.348
126.0, 116907.22309437074, 187500.0, 152266.05114532128, 137088.0543694561, 60370.65361388369, 112478.42609625174, 119897.1488949238, 124751.41134874956, -0.266, 0.808, 0.512, 192.0, 0.0, 0.0, 0.0, 0.0, 0.0, 0.0, 0.0, 0.0, 0.0, 1.7272855593526483E9, 0.0, 2024-09-25 12:32:39.352
127.0, 116892.82857094152, 187500.0, 152258.65271790657, 137088.99314272322, 60364.66334636967, 112485.33278528844, 119894.01965070007, 124760.01677036486, -0.266, 0.808, 0.512, 192.0, 0.0, 0.0, 0.0, 0.0, 0.0, 0.0, 0.0, 0.0, 0.0, 1.7272855593566532E9, 0.0, 2024-09-25 12:32:39.356
128.0, 116879.97631787973, 187500.0, 152213.7257115514, 137074.82213673857, 60333.08033145432, 112478.09082008492, 119885.52598780704, 124756.84282265221, -0.266, 0.808, 0.512, 192.0, 0.0, 0.0, 0.0, 0.0, 0.0, 0.0, 0.0, 0.0, 0.0, 1.7272855593607345E9, 0.0, 2024-09-25 12:32:39.360
129.0, 116896.78482971012, 187500.0, 152219.3807028986, 137078.33136061806, 60341.23871818051, 112477.24145379562, 119896.79126701252, 124753.33359877272, -0.266, 0.808, 0.512, 192.0, 0.0, 0.0, 0.0, 0.0, 0.0, 0.0, 0.0, 0.0, 0.0, 1.7272855593646455E9, 0.0, 2024-09-25 12:32:39.364
130.0, 116905.45730655878, 187500.0, 152269.47096222293, 137091.27302065768, 60369.98306155003, 112485.42219226625, 119895.13723792283, 124767.45990126848, -0.266, 0.808, 0.512, 192.0, 0.0, 0.0, 0.0, 0.0, 0.0, 0.0, 0.0, 0.0, 0.0, 1.72728555936875E9, 0.0, 2024-09-25 12:32:39.368
131.0, 116897.03069889912, 187500.0, 152270.76736340133, 137091.29537240212, 60366.56324464837, 112486.78564867804, 119890.30926112048, 124772.24317458192, -0.258, 0.796, 0.512, 192.0, 247.0, 240.0, 24.0, 224.0, 16.0, 0.0, 0.0, 0.0, 0.0, 1.727285559372723E9, 0.0, 2024-09-25 12:32:39.372
132.0, 116896.40485005437, 187500.0, 152223.04638898926, 137083.67342754288, 60338.8917850127, 112478.62726195184, 119892.99147045512, 124755.79229066281, -0.258, 0.796, 0.512, 192.0, 0.0, 0.0, 0.0, 0.0, 0.0, 0.0, 0.0, 0.0, 0.0, 1.727285559377714E9, 0.0, 2024-09-25 12:32:39.377
133.0, 116905.30084434758, 187500.0, 152214.86565051862, 137081.08062518606, 60339.04824722389, 112474.51454097207, 119892.05269718799, 124750.42787199354, -0.258, 0.796, 0.512, 192.0, 0.0, 0.0, 0.0, 0.0, 0.0, 0.0, 0.0, 0.0, 0.0, 1.7272855593807437E9, 0.0, 2024-09-25 12:32:39.380
134.0, 116915.22501888574, 187500.0, 152268.57689244472, 137094.0669887146, 60369.69248887211, 112484.01403236557, 119890.01868844256, 124771.14793910361, -0.258, 0.796, 0.512, 192.0, 0.0, 0.0, 0.0, 0.0, 0.0, 0.0, 0.0, 0.0, 0.0, 1.727285559384751E9, 0.0, 2024-09-25 12:32:39.384
135.0, 116911.6934432618, 187500.0, 152279.0375088498, 137099.7666835507, 60371.972366806556, 112487.43384926724, 119897.64063330182, 124766.92345940156, -0.258, 0.796, 0.512, 192.0, 0.0, 0.0, 0.0, 0.0, 0.0, 0.0, 0.0, 0.0, 0.0, 1.7272855593887E9, 0.0, 2024-09-25 12:32:39.388
136.0, 116898.66237624436, 187500.0, 152239.45256941946, 137091.69770380232, 60350.000602006985, 112488.97611963465, 119900.97104322565, 124768.91276465807, -0.258, 0.796, 0.512, 192.0, 0.0, 0.0, 0.0, 0.0, 0.0, 0.0, 0.0, 0.0, 0.0, 1.7272855593927789E9, 0.0, 2024-09-25 12:32:39.392
137.0, 116912.25223687319, 187500.0, 152216.74319705286, 137089.64134331243, 60344.81499729335, 112487.34444228941, 119907.8553805179, 124760.57556397625, -0.258, 0.796, 0.512, 192.0, 0.0, 0.0, 0.0, 0.0, 0.0, 0.0, 0.0, 0.0, 0.0, 1.7272855593967962E9, 0.0, 2024-09-25 12:32:39.396
138.0, 116925.30565563508, 187500.0, 152252.46128469246, 137099.43140738385, 60369.33486096083, 112489.57961673495, 119906.98366248414, 124756.1499185741, -0.258, 0.796, 0.512, 192.0, 0.0, 0.0, 0.0, 0.0, 0.0, 0.0, 0.0, 0.0, 0.0, 1.7272855594008107E9, 0.0, 2024-09-25 12:32:39.400
139.0, 116923.09283293401, 187500.0, 152284.13370658562, 137107.34392492104, 60381.538913433425, 112500.37550930686, 119906.35781363939, 124772.06436062627, -0.258, 0.796, 0.512, 192.0, 0.0, 0.0, 0.0, 0.0, 0.0, 0.0, 0.0, 0.0, 0.0, 1.727285559403808E9, 0.0, 2024-09-25 12:32:39.403
140.0, 116913.3921758404, 187500.0, 152243.74410435488, 137096.83860502703, 60353.1969014641, 112495.2569598266, 119905.03906071653, 124764.21889832246, -0.258, 0.796, 0.512, 192.0, 0.0, 0.0, 0.0, 0.0, 0.0, 0.0, 0.0, 0.0, 0.0, 1.7272855594088104E9, 0.0, 2024-09-25 12:32:39.408
141.0, 116913.05689967358, 187500.0, 152212.3399033952, 137090.93774449083, 60340.791683291405, 112492.84297142542, 119905.73196479464, 124756.68636044102, -0.258, 0.796, 0.512, 192.0, 0.0, 0.0, 0.0, 0.0, 0.0, 0.0, 0.0, 0.0, 0.0, 1.7272855594138372E9, 0.0, 2024-09-25 12:32:39.413
142.0, 116923.15988816737, 187500.0, 152247.96858405694, 137100.52664286215, 60366.362078948274, 112499.36968080637, 119909.66587181877, 124766.4987762569, -0.254, 0.802, 0.514, 192.0, 248.0, 16.0, 25.0, 16.0, 16.0, 16.0, 0.0, 0.0, 0.0, 1.7272855594168456E9, 0.0, 2024-09-25 12:32:39.416
143.0, 116921.43880384431, 187500.0, 152282.88200889612, 137112.10484649002, 60386.009262324485, 112508.31037858849, 119914.22562768766, 124777.0487996398, -0.254, 0.802, 0.514, 192.0, 0.0, 0.0, 0.0, 0.0, 0.0, 0.0, 0.0, 0.0, 0.0, 1.7272855594228628E9, 0.0, 2024-09-25 12:32:39.422
144.0, 116905.23378911422, 187500.0, 152251.7907323588, 137101.08543647354, 60361.93643354612, 112502.16364886328, 119908.92826425175, 124779.70865722999, -0.254, 0.802, 0.514, 192.0, 0.0, 0.0, 0.0, 0.0, 0.0, 0.0, 0.0, 0.0, 0.0, 1.7272855594258704E9, 0.0, 2024-09-25 12:32:39.425
145.0, 116915.73910900821, 187500.0, 152213.81511852922, 137092.7705875362, 60341.059904224865, 112494.6534627263, 119914.29268292102, 124765.0012093784, -0.254, 0.802, 0.514, 192.0, 0.0, 0.0, 0.0, 0.0, 0.0, 0.0, 0.0, 0.0, 0.0, 1.7272855594288197E9, 0.0, 2024-09-25 12:32:39.428
146.0, 116926.62440855795, 187500.0, 152242.20183398746, 137102.2700789297, 60365.55741614788, 112503.46005004169, 119916.61726434437, 124774.12072111617, -0.254, 0.802, 0.514, 192.0, 0.0, 0.0, 0.0, 0.0, 0.0, 0.0, 0.0, 0.0, 0.0, 1.7272855594318583E9, 0.0, 2024-09-25 12:32:39.431
147.0, 116919.67301603235, 187500.0, 152283.12787808513, 137110.1155412335, 60384.64580591271, 112508.06450939948, 119910.33642415244, 124787.46471255599, -0.254, 0.802, 0.514, 192.0, 0.0, 0.0, 0.0, 0.0, 0.0, 0.0, 0.0, 0.0, 0.0, 1.727285559436866E9, 0.0, 2024-09-25 12:32:39.436
148.0, 116911.53698105062, 187500.0, 152257.91511033956, 137101.04073298463, 60361.824674823845, 112498.31914881697, 119906.04488921701, 124778.03227639584, -0.254, 0.802, 0.514, 192.0, 0.0, 0.0, 0.0, 0.0, 0.0, 0.0, 0.0, 0.0, 0.0, 1.7272855594408305E9, 0.0, 2024-09-25 12:32:39.440
149.0, 116918.35426310949, 187500.0, 152215.46914761892, 137096.39157013793, 60337.908308256665, 112493.04413712551, 119916.57256085546, 124763.45893901098, -0.254, 0.802, 0.514, 192.0, 0.0, 0.0, 0.0, 0.0, 0.0, 0.0, 0.0, 0.0, 0.0, 1.7272855594447763E9, 0.0, 2024-09-25 12:32:39.444
150.0, 116930.31244639307, 187500.0, 152234.37872342812, 137099.99020099523, 60353.68863984211, 112495.27931157105, 119919.09830797891, 124774.59010774973, -0.254, 0.802, 0.514, 192.0, 0.0, 0.0, 0.0, 0.0, 0.0, 0.0, 0.0, 0.0, 0.0, 1.727285559448859E9, 0.0, 2024-09-25 12:32:39.448
151.0, 116932.41351037187, 187500.0, 152276.46705823744, 137105.4216748979, 60375.168666263664, 112498.02857613906, 119915.67849107725, 124783.32963983175, -0.254, 0.802, 0.514, 192.0, 0.0, 0.0, 0.0, 0.0, 0.0, 0.0, 0.0, 0.0, 0.0, 1.727285559452915E9, 0.0, 2024-09-25 12:32:39.452
152.0, 116918.1978008983, 187500.0, 152266.0958488102, 137107.92507027686, 60365.91504405917, 112500.39786105131, 119921.53464812454, 124778.81458745178, -0.258, 0.8, 0.516, 192.0, 247.0, 240.0, 25.0, 0.0, 16.0, 32.0, 0.0, 0.0, 0.0, 1.7272855594568565E9, 0.0, 2024-09-25 12:32:39.456
153.0, 116910.4417455723, 187500.0, 152217.190231942, 137095.5198521042, 60337.282459411916, 112492.73121270315, 119924.82035455947, 124765.31413380077, -0.258, 0.8, 0.516, 192.0, 0.0, 0.0, 0.0, 0.0, 0.0, 0.0, 0.0, 0.0, 0.0, 1.7272855594598885E9, 0.0, 2024-09-25 12:32:39.459
154.0, 116925.50682133518, 187500.0, 152223.7392930674, 137099.34200040603, 60346.78195080542, 112498.36385230588, 119930.52004939558, 124773.58427924923, -0.258, 0.8, 0.516, 192.0, 0.0, 0.0, 0.0, 0.0, 0.0, 0.0, 0.0, 0.0, 0.0, 1.7272855594639332E9, 0.0, 2024-09-25 12:32:39.463
155.0, 116933.55344933909, 187500.0, 152272.57785470222, 137111.97073602327, 60374.45341044109, 112503.72827097516, 119933.5598866415, 124784.89426194361, -0.258, 0.8, 0.516, 192.0, 0.0, 0.0, 0.0, 0.0, 0.0, 0.0, 0.0, 0.0, 0.0, 1.7272855594688773E9, 0.0, 2024-09-25 12:32:39.468
156.0, 116925.350359124, 187500.0, 152277.07055533773, 137114.51883489118, 60371.57003540636, 112507.17043962127, 119931.2576569626, 124788.8505207122, -0.258, 0.8, 0.516, 192.0, 0.0, 0.0, 0.0, 0.0, 0.0, 0.0, 0.0, 0.0, 0.0, 1.72728555947392E9, 0.0, 2024-09-25 12:32:39.473
157.0, 116916.23084738624, 187500.0, 152230.7800925708, 137101.93480276284, 60342.75863680347, 112500.19669535122, 119930.05066276202, 124781.83207295324, -0.258, 0.8, 0.516, 192.0, 0.0, 0.0, 0.0, 0.0, 0.0, 0.0, 0.0, 0.0, 0.0, 1.7272855594789314E9, 0.0, 2024-09-25 12:32:39.478
158.0, 116921.25998988867, 187500.0, 152218.30781916474, 137101.33130566255, 60339.67409606864, 112495.83810518243, 119931.10119475142, 124776.82528219525, -0.258, 0.8, 0.516, 192.0, 0.0, 0.0, 0.0, 0.0, 0.0, 0.0, 0.0, 0.0, 0.0, 1.7272855594819188E9, 0.0, 2024-09-25 12:32:39.481
